# Version 2.1 - nm, norm@500 to 1, cut digits, bergeron_2500_80.dat_2500
# Wavelength(nm)  Flambda(ergs/cm^s/s/nm)
300.00 0.06497
300.10 0.06515
300.20 0.06534
300.30 0.06554
300.40 0.06573
300.50 0.06592
300.60 0.06611
300.70 0.0663
300.80 0.06649
300.90 0.06668
301.00 0.06687
301.10 0.06706
301.20 0.06725
301.30 0.06744
301.40 0.06763
301.50 0.06782
301.60 0.068
301.70 0.06819
301.80 0.06838
301.90 0.06857
302.00 0.06876
302.10 0.06895
302.20 0.06915
302.30 0.06935
302.40 0.06955
302.50 0.06975
302.60 0.06995
302.70 0.07015
302.80 0.07034
302.90 0.07054
303.00 0.07074
303.10 0.07093
303.20 0.07113
303.30 0.07133
303.40 0.07152
303.50 0.07172
303.60 0.07191
303.70 0.07211
303.80 0.0723
303.90 0.0725
304.00 0.0727
304.10 0.0729
304.20 0.07311
304.30 0.07331
304.40 0.07352
304.50 0.07372
304.60 0.07393
304.70 0.07413
304.80 0.07434
304.90 0.07454
305.00 0.07475
305.10 0.07495
305.20 0.07515
305.30 0.07536
305.40 0.07556
305.50 0.07576
305.60 0.07597
305.70 0.07617
305.80 0.07637
305.90 0.07657
306.00 0.07678
306.10 0.07699
306.20 0.0772
306.30 0.07742
306.40 0.07763
306.50 0.07784
306.60 0.07805
306.70 0.07827
306.80 0.07848
306.90 0.07869
307.00 0.0789
307.10 0.07911
307.20 0.07933
307.30 0.07954
307.40 0.07975
307.50 0.07996
307.60 0.08017
307.70 0.08038
307.80 0.08058
307.90 0.08079
308.00 0.08101
308.10 0.08123
308.20 0.08145
308.30 0.08167
308.40 0.08189
308.50 0.08211
308.60 0.08233
308.70 0.08255
308.80 0.08277
308.90 0.08299
309.00 0.08321
309.10 0.08342
309.20 0.08364
309.30 0.08386
309.40 0.08408
309.50 0.0843
309.60 0.08451
309.70 0.08473
309.80 0.08495
309.90 0.08516
310.00 0.08539
310.10 0.08561
310.20 0.08584
310.30 0.08607
310.40 0.0863
310.50 0.08652
310.60 0.08675
310.70 0.08698
310.80 0.08721
310.90 0.08743
311.00 0.08766
311.10 0.08789
311.20 0.08811
311.30 0.08834
311.40 0.08857
311.50 0.08879
311.60 0.08902
311.70 0.08924
311.80 0.08947
311.90 0.08969
312.00 0.08991
312.10 0.09014
312.20 0.09037
312.30 0.0906
312.40 0.09083
312.50 0.09107
312.60 0.09131
312.70 0.09154
312.80 0.09178
312.90 0.09201
313.00 0.09225
313.10 0.09248
313.20 0.09271
313.30 0.09295
313.40 0.09318
313.50 0.09341
313.60 0.09365
313.70 0.09388
313.80 0.09411
313.90 0.09435
314.00 0.09458
314.10 0.09482
314.20 0.09506
314.30 0.09531
314.40 0.09555
314.50 0.09579
314.60 0.09603
314.70 0.09628
314.80 0.09652
314.90 0.09676
315.00 0.097
315.10 0.09724
315.20 0.09748
315.30 0.09772
315.40 0.09796
315.50 0.0982
315.60 0.09844
315.70 0.09868
315.80 0.09892
315.90 0.09916
316.00 0.09941
316.10 0.09965
316.20 0.0999
316.30 0.1001
316.40 0.1004
316.50 0.1007
316.60 0.1009
316.70 0.1011
316.80 0.1014
316.90 0.1016
317.00 0.1019
317.10 0.1021
317.20 0.1024
317.30 0.1026
317.40 0.1029
317.50 0.1031
317.60 0.1034
317.70 0.1036
317.80 0.1039
317.90 0.1041
318.00 0.1044
318.10 0.1046
318.20 0.1049
318.30 0.1051
318.40 0.1054
318.50 0.1057
318.60 0.1059
318.70 0.1062
318.80 0.1064
318.90 0.1067
319.00 0.1069
319.10 0.1072
319.20 0.1075
319.30 0.1077
319.40 0.108
319.50 0.1082
319.60 0.1085
319.70 0.1087
319.80 0.109
319.90 0.1092
320.00 0.1095
320.10 0.1098
320.20 0.11
320.30 0.1103
320.40 0.1106
320.50 0.1108
320.60 0.1111
320.70 0.1114
320.80 0.1116
320.90 0.1119
321.00 0.1122
321.10 0.1124
321.20 0.1127
321.30 0.1129
321.40 0.1132
321.50 0.1135
321.60 0.1137
321.70 0.114
321.80 0.1142
321.90 0.1145
322.00 0.1148
322.10 0.115
322.20 0.1153
322.30 0.1156
322.40 0.1159
322.50 0.1161
322.60 0.1164
322.70 0.1167
322.80 0.117
322.90 0.1172
323.00 0.1175
323.10 0.1178
323.20 0.118
323.30 0.1183
323.40 0.1186
323.50 0.1189
323.60 0.1191
323.70 0.1194
323.80 0.1197
323.90 0.1199
324.00 0.1202
324.10 0.1205
324.20 0.1208
324.30 0.121
324.40 0.1213
324.50 0.1216
324.60 0.1219
324.70 0.1222
324.80 0.1224
324.90 0.1227
325.00 0.123
325.10 0.1233
325.20 0.1236
325.30 0.1238
325.40 0.1241
325.50 0.1244
325.60 0.1247
325.70 0.1249
325.80 0.1252
325.90 0.1255
326.00 0.1258
326.10 0.1261
326.20 0.1264
326.30 0.1266
326.40 0.1269
326.50 0.1272
326.60 0.1275
326.70 0.1278
326.80 0.1281
326.90 0.1284
327.00 0.1287
327.10 0.1289
327.20 0.1292
327.30 0.1295
327.40 0.1298
327.50 0.1301
327.60 0.1304
327.70 0.1307
327.80 0.1309
327.90 0.1312
328.00 0.1315
328.10 0.1318
328.20 0.1321
328.30 0.1324
328.40 0.1327
328.50 0.133
328.60 0.1333
328.70 0.1336
328.80 0.1339
328.90 0.1342
329.00 0.1345
329.10 0.1348
329.20 0.1351
329.30 0.1353
329.40 0.1356
329.50 0.1359
329.60 0.1362
329.70 0.1365
329.80 0.1368
329.90 0.1371
330.00 0.1374
330.10 0.1377
330.20 0.138
330.30 0.1383
330.40 0.1386
330.50 0.1389
330.60 0.1392
330.70 0.1395
330.80 0.1398
330.90 0.1401
331.00 0.1404
331.10 0.1407
331.20 0.141
331.30 0.1413
331.40 0.1416
331.50 0.1419
331.60 0.1422
331.70 0.1425
331.80 0.1428
331.90 0.1431
332.00 0.1434
332.10 0.1437
332.20 0.1441
332.30 0.1444
332.40 0.1447
332.50 0.145
332.60 0.1453
332.70 0.1456
332.80 0.1459
332.90 0.1462
333.00 0.1465
333.10 0.1469
333.20 0.1472
333.30 0.1475
333.40 0.1478
333.50 0.1481
333.60 0.1484
333.70 0.1487
333.80 0.149
333.90 0.1493
334.00 0.1496
334.10 0.1499
334.20 0.1503
334.30 0.1506
334.40 0.1509
334.50 0.1512
334.60 0.1515
334.70 0.1519
334.80 0.1522
334.90 0.1525
335.00 0.1528
335.10 0.1531
335.20 0.1534
335.30 0.1538
335.40 0.1541
335.50 0.1544
335.60 0.1547
335.70 0.155
335.80 0.1553
335.90 0.1556
336.00 0.156
336.10 0.1563
336.20 0.1566
336.30 0.1569
336.40 0.1573
336.50 0.1576
336.60 0.1579
336.70 0.1582
336.80 0.1586
336.90 0.1589
337.00 0.1592
337.10 0.1595
337.20 0.1599
337.30 0.1602
337.40 0.1605
337.50 0.1608
337.60 0.1612
337.70 0.1615
337.80 0.1618
337.90 0.1621
338.00 0.1624
338.10 0.1628
338.20 0.1631
338.30 0.1635
338.40 0.1638
338.50 0.1641
338.60 0.1645
338.70 0.1648
338.80 0.1651
338.90 0.1655
339.00 0.1658
339.10 0.1661
339.20 0.1664
339.30 0.1668
339.40 0.1671
339.50 0.1674
339.60 0.1678
339.70 0.1681
339.80 0.1684
339.90 0.1688
340.00 0.1691
340.10 0.1694
340.20 0.1698
340.30 0.1701
340.40 0.1705
340.50 0.1708
340.60 0.1711
340.70 0.1715
340.80 0.1718
340.90 0.1722
341.00 0.1725
341.10 0.1728
341.20 0.1732
341.30 0.1735
341.40 0.1739
341.50 0.1742
341.60 0.1745
341.70 0.1749
341.80 0.1752
341.90 0.1755
342.00 0.1759
342.10 0.1762
342.20 0.1766
342.30 0.1769
342.40 0.1773
342.50 0.1776
342.60 0.178
342.70 0.1783
342.80 0.1787
342.90 0.179
343.00 0.1794
343.10 0.1797
343.20 0.1801
343.30 0.1804
343.40 0.1807
343.50 0.1811
343.60 0.1814
343.70 0.1818
343.80 0.1821
343.90 0.1825
344.00 0.1828
344.10 0.1832
344.20 0.1835
344.30 0.1839
344.40 0.1842
344.50 0.1846
344.60 0.185
344.70 0.1853
344.80 0.1857
344.90 0.186
345.00 0.1864
345.10 0.1867
345.20 0.1871
345.30 0.1874
345.40 0.1878
345.50 0.1881
345.60 0.1885
345.70 0.1888
345.80 0.1892
345.90 0.1895
346.00 0.1899
346.10 0.1903
346.20 0.1906
346.30 0.191
346.40 0.1914
346.50 0.1917
346.60 0.1921
346.70 0.1925
346.80 0.1928
346.90 0.1932
347.00 0.1935
347.10 0.1939
347.20 0.1943
347.30 0.1946
347.40 0.195
347.50 0.1953
347.60 0.1957
347.70 0.1961
347.80 0.1964
347.90 0.1968
348.00 0.1971
348.10 0.1975
348.20 0.1979
348.30 0.1983
348.40 0.1986
348.50 0.199
348.60 0.1994
348.70 0.1997
348.80 0.2001
348.90 0.2005
349.00 0.2008
349.10 0.2012
349.20 0.2016
349.30 0.2019
349.40 0.2023
349.50 0.2027
349.60 0.203
349.70 0.2034
349.80 0.2038
349.90 0.2041
350.00 0.2045
350.10 0.2049
350.20 0.2053
350.30 0.2056
350.40 0.206
350.50 0.2064
350.60 0.2068
350.70 0.2072
350.80 0.2075
350.90 0.2079
351.00 0.2083
351.10 0.2087
351.20 0.209
351.30 0.2094
351.40 0.2098
351.50 0.2102
351.60 0.2105
351.70 0.2109
351.80 0.2113
351.90 0.2117
352.00 0.212
352.10 0.2124
352.20 0.2128
352.30 0.2132
352.40 0.2136
352.50 0.214
352.60 0.2143
352.70 0.2147
352.80 0.2151
352.90 0.2155
353.00 0.2159
353.10 0.2163
353.20 0.2167
353.30 0.217
353.40 0.2174
353.50 0.2178
353.60 0.2182
353.70 0.2186
353.80 0.2189
353.90 0.2193
354.00 0.2197
354.10 0.2201
354.20 0.2205
354.30 0.2209
354.40 0.2213
354.50 0.2217
354.60 0.2221
354.70 0.2224
354.80 0.2228
354.90 0.2232
355.00 0.2236
355.10 0.224
355.20 0.2244
355.30 0.2248
355.40 0.2252
355.50 0.2256
355.60 0.2259
355.70 0.2263
355.80 0.2267
355.90 0.2271
356.00 0.2275
356.10 0.2279
356.20 0.2283
356.30 0.2287
356.40 0.2291
356.50 0.2295
356.60 0.2299
356.70 0.2303
356.80 0.2307
356.90 0.2311
357.00 0.2315
357.10 0.2319
357.20 0.2323
357.30 0.2327
357.40 0.2331
357.50 0.2335
357.60 0.2339
357.70 0.2343
357.80 0.2347
357.90 0.2351
358.00 0.2354
358.10 0.2359
358.20 0.2363
358.30 0.2367
358.40 0.2371
358.50 0.2375
358.60 0.2379
358.70 0.2383
358.80 0.2387
358.90 0.2391
359.00 0.2395
359.10 0.2399
359.20 0.2403
359.30 0.2407
359.40 0.2411
359.50 0.2415
359.60 0.2419
359.70 0.2423
359.80 0.2427
359.90 0.2431
360.00 0.2435
360.10 0.2439
360.20 0.2444
360.30 0.2448
360.40 0.2452
360.50 0.2456
360.60 0.246
360.70 0.2464
360.80 0.2468
360.90 0.2473
361.00 0.2477
361.10 0.2481
361.20 0.2485
361.30 0.2489
361.40 0.2493
361.50 0.2497
361.60 0.2501
361.70 0.2505
361.80 0.2509
361.90 0.2513
362.00 0.2517
362.10 0.2522
362.20 0.2526
362.30 0.253
362.40 0.2534
362.50 0.2538
362.60 0.2542
362.70 0.2547
362.80 0.2551
362.90 0.2555
363.00 0.2559
363.10 0.2563
363.20 0.2568
363.30 0.2572
363.40 0.2576
363.50 0.258
363.60 0.2584
363.70 0.2589
363.80 0.2593
363.90 0.2597
364.00 0.2601
364.10 0.2605
364.20 0.261
364.30 0.2614
364.40 0.2618
364.50 0.2622
364.60 0.2626
364.70 0.2631
364.80 0.2635
364.90 0.2639
365.00 0.2643
365.10 0.2648
365.20 0.2652
365.30 0.2656
365.40 0.266
365.50 0.2665
365.60 0.2669
365.70 0.2673
365.80 0.2677
365.90 0.2682
366.00 0.2686
366.10 0.269
366.20 0.2695
366.30 0.2699
366.40 0.2703
366.50 0.2708
366.60 0.2712
366.70 0.2716
366.80 0.2721
366.90 0.2725
367.00 0.2729
367.10 0.2733
367.20 0.2738
367.30 0.2742
367.40 0.2746
367.50 0.2751
367.60 0.2755
367.70 0.2759
367.80 0.2763
367.90 0.2768
368.00 0.2772
368.10 0.2776
368.20 0.2781
368.30 0.2785
368.40 0.279
368.50 0.2794
368.60 0.2798
368.70 0.2803
368.80 0.2807
368.90 0.2812
369.00 0.2816
369.10 0.282
369.20 0.2825
369.30 0.2829
369.40 0.2833
369.50 0.2838
369.60 0.2842
369.70 0.2846
369.80 0.2851
369.90 0.2855
370.00 0.2859
370.10 0.2864
370.20 0.2868
370.30 0.2873
370.40 0.2877
370.50 0.2882
370.60 0.2886
370.70 0.2891
370.80 0.2895
370.90 0.29
371.00 0.2904
371.10 0.2908
371.20 0.2913
371.30 0.2917
371.40 0.2922
371.50 0.2926
371.60 0.2931
371.70 0.2935
371.80 0.2939
371.90 0.2944
372.00 0.2948
372.10 0.2953
372.20 0.2957
372.30 0.2962
372.40 0.2966
372.50 0.2971
372.60 0.2975
372.70 0.298
372.80 0.2984
372.90 0.2989
373.00 0.2993
373.10 0.2998
373.20 0.3002
373.30 0.3007
373.40 0.3011
373.50 0.3016
373.60 0.302
373.70 0.3025
373.80 0.3029
373.90 0.3034
374.00 0.3038
374.10 0.3043
374.20 0.3047
374.30 0.3052
374.40 0.3057
374.50 0.3061
374.60 0.3066
374.70 0.307
374.80 0.3075
374.90 0.3079
375.00 0.3084
375.10 0.3089
375.20 0.3093
375.30 0.3098
375.40 0.3102
375.50 0.3107
375.60 0.3111
375.70 0.3116
375.80 0.312
375.90 0.3125
376.00 0.3129
376.10 0.3134
376.20 0.3139
376.30 0.3143
376.40 0.3148
376.50 0.3152
376.60 0.3157
376.70 0.3162
376.80 0.3166
376.90 0.3171
377.00 0.3175
377.10 0.318
377.20 0.3185
377.30 0.3189
377.40 0.3194
377.50 0.3199
377.60 0.3203
377.70 0.3208
377.80 0.3212
377.90 0.3217
378.00 0.3222
378.10 0.3226
378.20 0.3231
378.30 0.3236
378.40 0.324
378.50 0.3245
378.60 0.325
378.70 0.3254
378.80 0.3259
378.90 0.3264
379.00 0.3268
379.10 0.3273
379.20 0.3278
379.30 0.3282
379.40 0.3287
379.50 0.3292
379.60 0.3296
379.70 0.3301
379.80 0.3306
379.90 0.3311
380.00 0.3315
380.10 0.332
380.20 0.3325
380.30 0.3329
380.40 0.3334
380.50 0.3339
380.60 0.3344
380.70 0.3348
380.80 0.3353
380.90 0.3358
381.00 0.3362
381.10 0.3367
381.20 0.3372
381.30 0.3377
381.40 0.3381
381.50 0.3386
381.60 0.3391
381.70 0.3396
381.80 0.34
381.90 0.3405
382.00 0.341
382.10 0.3415
382.20 0.3419
382.30 0.3424
382.40 0.3429
382.50 0.3434
382.60 0.3439
382.70 0.3443
382.80 0.3448
382.90 0.3453
383.00 0.3458
383.10 0.3462
383.20 0.3467
383.30 0.3472
383.40 0.3477
383.50 0.3482
383.60 0.3486
383.70 0.3491
383.80 0.3496
383.90 0.3501
384.00 0.3506
384.10 0.351
384.20 0.3515
384.30 0.352
384.40 0.3525
384.50 0.353
384.60 0.3535
384.70 0.3539
384.80 0.3544
384.90 0.3549
385.00 0.3554
385.10 0.3559
385.20 0.3564
385.30 0.3568
385.40 0.3573
385.50 0.3578
385.60 0.3583
385.70 0.3588
385.80 0.3593
385.90 0.3598
386.00 0.3603
386.10 0.3607
386.20 0.3612
386.30 0.3617
386.40 0.3622
386.50 0.3627
386.60 0.3632
386.70 0.3637
386.80 0.3642
386.90 0.3646
387.00 0.3651
387.10 0.3656
387.20 0.3661
387.30 0.3666
387.40 0.3671
387.50 0.3676
387.60 0.3681
387.70 0.3686
387.80 0.3691
387.90 0.3696
388.00 0.37
388.10 0.3705
388.20 0.371
388.30 0.3715
388.40 0.372
388.50 0.3725
388.60 0.373
388.70 0.3735
388.80 0.374
388.90 0.3745
389.00 0.375
389.10 0.3755
389.20 0.376
389.30 0.3765
389.40 0.377
389.50 0.3775
389.60 0.378
389.70 0.3785
389.80 0.3789
389.90 0.3794
390.00 0.3799
390.10 0.3804
390.20 0.3809
390.30 0.3814
390.40 0.3819
390.50 0.3824
390.60 0.3829
390.70 0.3834
390.80 0.3839
390.90 0.3844
391.00 0.3849
391.10 0.3854
391.20 0.3859
391.30 0.3864
391.40 0.3869
391.50 0.3874
391.60 0.3879
391.70 0.3884
391.80 0.3889
391.90 0.3894
392.00 0.3899
392.10 0.3904
392.20 0.3909
392.30 0.3915
392.40 0.392
392.50 0.3925
392.60 0.393
392.70 0.3935
392.80 0.394
392.90 0.3945
393.00 0.395
393.10 0.3955
393.20 0.396
393.30 0.3965
393.40 0.397
393.50 0.3975
393.60 0.398
393.70 0.3985
393.80 0.399
393.90 0.3995
394.00 0.4
394.10 0.4006
394.20 0.4011
394.30 0.4016
394.40 0.4021
394.50 0.4026
394.60 0.4031
394.70 0.4036
394.80 0.4041
394.90 0.4046
395.00 0.4051
395.10 0.4056
395.20 0.4062
395.30 0.4067
395.40 0.4072
395.50 0.4077
395.60 0.4082
395.70 0.4087
395.80 0.4092
395.90 0.4097
396.00 0.4102
396.10 0.4107
396.20 0.4113
396.30 0.4118
396.40 0.4123
396.50 0.4128
396.60 0.4133
396.70 0.4138
396.80 0.4143
396.90 0.4149
397.00 0.4154
397.10 0.4159
397.20 0.4164
397.30 0.4169
397.40 0.4174
397.50 0.4179
397.60 0.4185
397.70 0.419
397.80 0.4195
397.90 0.42
398.00 0.4205
398.10 0.421
398.20 0.4216
398.30 0.4221
398.40 0.4226
398.50 0.4231
398.60 0.4236
398.70 0.4241
398.80 0.4247
398.90 0.4252
399.00 0.4257
399.10 0.4262
399.20 0.4267
399.30 0.4273
399.40 0.4278
399.50 0.4283
399.60 0.4288
399.70 0.4293
399.80 0.4299
399.90 0.4304
400.00 0.4309
400.10 0.4314
400.20 0.4319
400.30 0.4325
400.40 0.433
400.50 0.4335
400.60 0.434
400.70 0.4346
400.80 0.4351
400.90 0.4356
401.00 0.4361
401.10 0.4367
401.20 0.4372
401.30 0.4377
401.40 0.4382
401.50 0.4387
401.60 0.4393
401.70 0.4398
401.80 0.4403
401.90 0.4408
402.00 0.4414
402.10 0.4419
402.20 0.4424
402.30 0.4429
402.40 0.4435
402.50 0.444
402.60 0.4445
402.70 0.4451
402.80 0.4456
402.90 0.4461
403.00 0.4466
403.10 0.4472
403.20 0.4477
403.30 0.4482
403.40 0.4487
403.50 0.4493
403.60 0.4498
403.70 0.4503
403.80 0.4509
403.90 0.4514
404.00 0.4519
404.10 0.4524
404.20 0.453
404.30 0.4535
404.40 0.454
404.50 0.4546
404.60 0.4551
404.70 0.4556
404.80 0.4562
404.90 0.4567
405.00 0.4572
405.10 0.4578
405.20 0.4583
405.30 0.4588
405.40 0.4594
405.50 0.4599
405.60 0.4604
405.70 0.4609
405.80 0.4615
405.90 0.462
406.00 0.4625
406.10 0.4631
406.20 0.4636
406.30 0.4641
406.40 0.4647
406.50 0.4652
406.60 0.4658
406.70 0.4663
406.80 0.4668
406.90 0.4674
407.00 0.4679
407.10 0.4684
407.20 0.469
407.30 0.4695
407.40 0.47
407.50 0.4706
407.60 0.4711
407.70 0.4716
407.80 0.4722
407.90 0.4727
408.00 0.4733
408.10 0.4738
408.20 0.4743
408.30 0.4749
408.40 0.4754
408.50 0.4759
408.60 0.4765
408.70 0.477
408.80 0.4776
408.90 0.4781
409.00 0.4786
409.10 0.4792
409.20 0.4797
409.30 0.4803
409.40 0.4808
409.50 0.4813
409.60 0.4819
409.70 0.4824
409.80 0.483
409.90 0.4835
410.00 0.484
410.10 0.4846
410.20 0.4851
410.30 0.4857
410.40 0.4862
410.50 0.4867
410.60 0.4873
410.70 0.4878
410.80 0.4884
410.90 0.4889
411.00 0.4895
411.10 0.49
411.20 0.4906
411.30 0.4911
411.40 0.4916
411.50 0.4922
411.60 0.4927
411.70 0.4933
411.80 0.4938
411.90 0.4944
412.00 0.4949
412.10 0.4954
412.20 0.496
412.30 0.4965
412.40 0.4971
412.50 0.4976
412.60 0.4982
412.70 0.4987
412.80 0.4993
412.90 0.4998
413.00 0.5004
413.10 0.5009
413.20 0.5015
413.30 0.502
413.40 0.5025
413.50 0.5031
413.60 0.5036
413.70 0.5042
413.80 0.5047
413.90 0.5053
414.00 0.5058
414.10 0.5064
414.20 0.5069
414.30 0.5075
414.40 0.508
414.50 0.5086
414.60 0.5091
414.70 0.5097
414.80 0.5102
414.90 0.5108
415.00 0.5113
415.10 0.5119
415.20 0.5124
415.30 0.513
415.40 0.5135
415.50 0.5141
415.60 0.5146
415.70 0.5152
415.80 0.5157
415.90 0.5163
416.00 0.5168
416.10 0.5174
416.20 0.5179
416.30 0.5185
416.40 0.519
416.50 0.5196
416.60 0.5201
416.70 0.5207
416.80 0.5212
416.90 0.5218
417.00 0.5223
417.10 0.5229
417.20 0.5234
417.30 0.524
417.40 0.5246
417.50 0.5251
417.60 0.5257
417.70 0.5262
417.80 0.5268
417.90 0.5273
418.00 0.5279
418.10 0.5284
418.20 0.529
418.30 0.5295
418.40 0.5301
418.50 0.5306
418.60 0.5312
418.70 0.5318
418.80 0.5323
418.90 0.5329
419.00 0.5334
419.10 0.534
419.20 0.5345
419.30 0.5351
419.40 0.5357
419.50 0.5362
419.60 0.5368
419.70 0.5373
419.80 0.5379
419.90 0.5384
420.00 0.539
420.10 0.5395
420.20 0.5401
420.30 0.5407
420.40 0.5412
420.50 0.5418
420.60 0.5423
420.70 0.5429
420.80 0.5435
420.90 0.544
421.00 0.5446
421.10 0.5451
421.20 0.5457
421.30 0.5463
421.40 0.5468
421.50 0.5474
421.60 0.5479
421.70 0.5485
421.80 0.549
421.90 0.5496
422.00 0.5502
422.10 0.5507
422.20 0.5513
422.30 0.5518
422.40 0.5524
422.50 0.553
422.60 0.5535
422.70 0.5541
422.80 0.5547
422.90 0.5552
423.00 0.5558
423.10 0.5563
423.20 0.5569
423.30 0.5575
423.40 0.558
423.50 0.5586
423.60 0.5591
423.70 0.5597
423.80 0.5603
423.90 0.5608
424.00 0.5614
424.10 0.562
424.20 0.5625
424.30 0.5631
424.40 0.5637
424.50 0.5642
424.60 0.5648
424.70 0.5654
424.80 0.5659
424.90 0.5665
425.00 0.567
425.10 0.5676
425.20 0.5682
425.30 0.5687
425.40 0.5693
425.50 0.5698
425.60 0.5704
425.70 0.571
425.80 0.5716
425.90 0.5721
426.00 0.5727
426.10 0.5733
426.20 0.5738
426.30 0.5744
426.40 0.5749
426.50 0.5755
426.60 0.5761
426.70 0.5766
426.80 0.5772
426.90 0.5778
427.00 0.5783
427.10 0.5789
427.20 0.5795
427.30 0.58
427.40 0.5806
427.50 0.5812
427.60 0.5818
427.70 0.5823
427.80 0.5829
427.90 0.5834
428.00 0.584
428.10 0.5846
428.20 0.5851
428.30 0.5857
428.40 0.5863
428.50 0.5869
428.60 0.5874
428.70 0.588
428.80 0.5886
428.90 0.5891
429.00 0.5897
429.10 0.5902
429.20 0.5908
429.30 0.5914
429.40 0.5919
429.50 0.5925
429.60 0.5931
429.70 0.5937
429.80 0.5942
429.90 0.5948
430.00 0.5954
430.10 0.596
430.20 0.5965
430.30 0.5971
430.40 0.5977
430.50 0.5982
430.60 0.5988
430.70 0.5994
430.80 0.5999
430.90 0.6005
431.00 0.6011
431.10 0.6017
431.20 0.6022
431.30 0.6028
431.40 0.6034
431.50 0.6039
431.60 0.6045
431.70 0.6051
431.80 0.6057
431.90 0.6062
432.00 0.6068
432.10 0.6074
432.20 0.6079
432.30 0.6085
432.40 0.6091
432.50 0.6097
432.60 0.6102
432.70 0.6108
432.80 0.6114
432.90 0.612
433.00 0.6125
433.10 0.6131
433.20 0.6137
433.30 0.6143
433.40 0.6148
433.50 0.6154
433.60 0.616
433.70 0.6165
433.80 0.6171
433.90 0.6177
434.00 0.6183
434.10 0.6189
434.20 0.6194
434.30 0.62
434.40 0.6205
434.50 0.6211
434.60 0.6217
434.70 0.6223
434.80 0.6228
434.90 0.6234
435.00 0.624
435.10 0.6245
435.20 0.6252
435.30 0.6257
435.40 0.6263
435.50 0.6269
435.60 0.6275
435.70 0.628
435.80 0.6286
435.90 0.6292
436.00 0.6297
436.10 0.6303
436.20 0.6309
436.30 0.6315
436.40 0.632
436.50 0.6326
436.60 0.6332
436.70 0.6338
436.80 0.6343
436.90 0.6349
437.00 0.6355
437.10 0.6361
437.20 0.6366
437.30 0.6372
437.40 0.6378
437.50 0.6384
437.60 0.639
437.70 0.6395
437.80 0.6401
437.90 0.6407
438.00 0.6413
438.10 0.6419
438.20 0.6424
438.30 0.643
438.40 0.6436
438.50 0.6442
438.60 0.6447
438.70 0.6453
438.80 0.6459
438.90 0.6465
439.00 0.6471
439.10 0.6476
439.20 0.6482
439.30 0.6488
439.40 0.6494
439.50 0.65
439.60 0.6505
439.70 0.6511
439.80 0.6517
439.90 0.6522
440.00 0.6528
440.10 0.6534
440.20 0.654
440.30 0.6546
440.40 0.6552
440.50 0.6557
440.60 0.6563
440.70 0.6569
440.80 0.6575
440.90 0.658
441.00 0.6586
441.10 0.6592
441.20 0.6598
441.30 0.6604
441.40 0.661
441.50 0.6615
441.60 0.6621
441.70 0.6627
441.80 0.6633
