# Version 2.1 - nm, norm@500 to 1, cut digits, bergeron_16000_85.dat_16000
# Wavelength(nm)  Flambda(ergs/cm^s/s/nm)
300.00 2.594
300.10 2.592
300.20 2.59
300.30 2.588
300.40 2.586
300.50 2.584
300.60 2.581
300.70 2.579
300.80 2.577
300.90 2.575
301.00 2.573
301.10 2.571
301.20 2.568
301.30 2.566
301.40 2.564
301.50 2.562
301.60 2.56
301.70 2.558
301.80 2.556
301.90 2.554
302.00 2.551
302.10 2.549
302.20 2.547
302.30 2.545
302.40 2.543
302.50 2.541
302.60 2.539
302.70 2.537
302.80 2.534
302.90 2.532
303.00 2.53
303.10 2.528
303.20 2.526
303.30 2.524
303.40 2.522
303.50 2.52
303.60 2.518
303.70 2.516
303.80 2.514
303.90 2.511
304.00 2.509
304.10 2.507
304.20 2.505
304.30 2.503
304.40 2.501
304.50 2.499
304.60 2.497
304.70 2.495
304.80 2.493
304.90 2.491
305.00 2.489
305.10 2.487
305.20 2.485
305.30 2.483
305.40 2.481
305.50 2.478
305.60 2.476
305.70 2.474
305.80 2.472
305.90 2.47
306.00 2.468
306.10 2.466
306.20 2.464
306.30 2.462
306.40 2.46
306.50 2.458
306.60 2.456
306.70 2.454
306.80 2.452
306.90 2.45
307.00 2.448
307.10 2.446
307.20 2.444
307.30 2.442
307.40 2.44
307.50 2.438
307.60 2.436
307.70 2.434
307.80 2.432
307.90 2.43
308.00 2.428
308.10 2.426
308.20 2.424
308.30 2.422
308.40 2.42
308.50 2.418
308.60 2.416
308.70 2.414
308.80 2.412
308.90 2.41
309.00 2.408
309.10 2.406
309.20 2.404
309.30 2.402
309.40 2.4
309.50 2.398
309.60 2.396
309.70 2.394
309.80 2.392
309.90 2.39
310.00 2.389
310.10 2.387
310.20 2.385
310.30 2.383
310.40 2.381
310.50 2.379
310.60 2.377
310.70 2.375
310.80 2.373
310.90 2.371
311.00 2.369
311.10 2.367
311.20 2.365
311.30 2.363
311.40 2.361
311.50 2.36
311.60 2.358
311.70 2.356
311.80 2.354
311.90 2.352
312.00 2.35
312.10 2.348
312.20 2.346
312.30 2.344
312.40 2.342
312.50 2.34
312.60 2.339
312.70 2.337
312.80 2.335
312.90 2.333
313.00 2.331
313.10 2.329
313.20 2.327
313.30 2.325
313.40 2.323
313.50 2.322
313.60 2.32
313.70 2.318
313.80 2.316
313.90 2.314
314.00 2.312
314.10 2.31
314.20 2.308
314.30 2.307
314.40 2.305
314.50 2.303
314.60 2.301
314.70 2.299
314.80 2.297
314.90 2.296
315.00 2.294
315.10 2.292
315.20 2.29
315.30 2.288
315.40 2.286
315.50 2.284
315.60 2.283
315.70 2.281
315.80 2.279
315.90 2.277
316.00 2.275
316.10 2.273
316.20 2.272
316.30 2.27
316.40 2.268
316.50 2.266
316.60 2.264
316.70 2.263
316.80 2.261
316.90 2.259
317.00 2.257
317.10 2.255
317.20 2.254
317.30 2.252
317.40 2.25
317.50 2.248
317.60 2.246
317.70 2.245
317.80 2.243
317.90 2.241
318.00 2.239
318.10 2.237
318.20 2.236
318.30 2.234
318.40 2.232
318.50 2.23
318.60 2.229
318.70 2.227
318.80 2.225
318.90 2.223
319.00 2.221
319.10 2.22
319.20 2.218
319.30 2.216
319.40 2.214
319.50 2.213
319.60 2.211
319.70 2.209
319.80 2.207
319.90 2.206
320.00 2.204
320.10 2.202
320.20 2.2
320.30 2.199
320.40 2.197
320.50 2.195
320.60 2.193
320.70 2.192
320.80 2.19
320.90 2.188
321.00 2.186
321.10 2.185
321.20 2.183
321.30 2.181
321.40 2.18
321.50 2.178
321.60 2.176
321.70 2.174
321.80 2.173
321.90 2.171
322.00 2.169
322.10 2.167
322.20 2.166
322.30 2.164
322.40 2.162
322.50 2.161
322.60 2.159
322.70 2.157
322.80 2.156
322.90 2.154
323.00 2.152
323.10 2.15
323.20 2.149
323.30 2.147
323.40 2.145
323.50 2.144
323.60 2.142
323.70 2.14
323.80 2.139
323.90 2.137
324.00 2.135
324.10 2.134
324.20 2.132
324.30 2.13
324.40 2.129
324.50 2.127
324.60 2.125
324.70 2.124
324.80 2.122
324.90 2.12
325.00 2.119
325.10 2.117
325.20 2.115
325.30 2.114
325.40 2.112
325.50 2.11
325.60 2.109
325.70 2.107
325.80 2.105
325.90 2.104
326.00 2.102
326.10 2.1
326.20 2.099
326.30 2.097
326.40 2.096
326.50 2.094
326.60 2.092
326.70 2.091
326.80 2.089
326.90 2.087
327.00 2.086
327.10 2.084
327.20 2.083
327.30 2.081
327.40 2.079
327.50 2.078
327.60 2.076
327.70 2.074
327.80 2.073
327.90 2.071
328.00 2.07
328.10 2.068
328.20 2.066
328.30 2.065
328.40 2.063
328.50 2.062
328.60 2.06
328.70 2.058
328.80 2.057
328.90 2.055
329.00 2.054
329.10 2.052
329.20 2.05
329.30 2.049
329.40 2.047
329.50 2.046
329.60 2.044
329.70 2.042
329.80 2.041
329.90 2.039
330.00 2.038
330.10 2.036
330.20 2.034
330.30 2.033
330.40 2.031
330.50 2.03
330.60 2.028
330.70 2.027
330.80 2.025
330.90 2.023
331.00 2.022
331.10 2.02
331.20 2.019
331.30 2.017
331.40 2.016
331.50 2.014
331.60 2.013
331.70 2.011
331.80 2.009
331.90 2.008
332.00 2.006
332.10 2.005
332.20 2.003
332.30 2.002
332.40 2
332.50 1.999
332.60 1.997
332.70 1.996
332.80 1.994
332.90 1.993
333.00 1.991
333.10 1.989
333.20 1.988
333.30 1.986
333.40 1.985
333.50 1.983
333.60 1.982
333.70 1.98
333.80 1.979
333.90 1.977
334.00 1.976
334.10 1.974
334.20 1.973
334.30 1.971
334.40 1.97
334.50 1.968
334.60 1.967
334.70 1.965
334.80 1.964
334.90 1.962
335.00 1.961
335.10 1.959
335.20 1.958
335.30 1.956
335.40 1.955
335.50 1.953
335.60 1.952
335.70 1.95
335.80 1.949
335.90 1.947
336.00 1.946
336.10 1.944
336.20 1.943
336.30 1.941
336.40 1.94
336.50 1.938
336.60 1.937
336.70 1.936
336.80 1.934
336.90 1.933
337.00 1.931
337.10 1.93
337.20 1.928
337.30 1.927
337.40 1.925
337.50 1.924
337.60 1.922
337.70 1.921
337.80 1.919
337.90 1.918
338.00 1.917
338.10 1.915
338.20 1.914
338.30 1.912
338.40 1.911
338.50 1.909
338.60 1.908
338.70 1.906
338.80 1.905
338.90 1.903
339.00 1.902
339.10 1.901
339.20 1.899
339.30 1.898
339.40 1.896
339.50 1.895
339.60 1.893
339.70 1.892
339.80 1.891
339.90 1.889
340.00 1.888
340.10 1.886
340.20 1.885
340.30 1.883
340.40 1.882
340.50 1.881
340.60 1.879
340.70 1.878
340.80 1.876
340.90 1.875
341.00 1.873
341.10 1.872
341.20 1.871
341.30 1.869
341.40 1.868
341.50 1.866
341.60 1.865
341.70 1.864
341.80 1.862
341.90 1.861
342.00 1.859
342.10 1.858
342.20 1.857
342.30 1.855
342.40 1.854
342.50 1.852
342.60 1.851
342.70 1.85
342.80 1.848
342.90 1.847
343.00 1.845
343.10 1.844
343.20 1.843
343.30 1.841
343.40 1.84
343.50 1.839
343.60 1.837
343.70 1.836
343.80 1.834
343.90 1.833
344.00 1.832
344.10 1.83
344.20 1.829
344.30 1.828
344.40 1.826
344.50 1.825
344.60 1.823
344.70 1.822
344.80 1.821
344.90 1.819
345.00 1.818
345.10 1.817
345.20 1.815
345.30 1.814
345.40 1.813
345.50 1.811
345.60 1.81
345.70 1.809
345.80 1.807
345.90 1.806
346.00 1.805
346.10 1.803
346.20 1.802
346.30 1.801
346.40 1.799
346.50 1.798
346.60 1.797
346.70 1.795
346.80 1.794
346.90 1.792
347.00 1.791
347.10 1.79
347.20 1.788
347.30 1.787
347.40 1.786
347.50 1.784
347.60 1.783
347.70 1.782
347.80 1.781
347.90 1.779
348.00 1.778
348.10 1.777
348.20 1.775
348.30 1.774
348.40 1.773
348.50 1.771
348.60 1.77
348.70 1.769
348.80 1.767
348.90 1.766
349.00 1.765
349.10 1.763
349.20 1.762
349.30 1.761
349.40 1.76
349.50 1.758
349.60 1.757
349.70 1.756
349.80 1.754
349.90 1.753
350.00 1.752
350.10 1.75
350.20 1.749
350.30 1.748
350.40 1.747
350.50 1.745
350.60 1.744
350.70 1.743
350.80 1.741
350.90 1.74
351.00 1.739
351.10 1.738
351.20 1.736
351.30 1.735
351.40 1.734
351.50 1.733
351.60 1.731
351.70 1.73
351.80 1.729
351.90 1.727
352.00 1.726
352.10 1.725
352.20 1.724
352.30 1.722
352.40 1.721
352.50 1.72
352.60 1.719
352.70 1.717
352.80 1.716
352.90 1.715
353.00 1.714
353.10 1.712
353.20 1.711
353.30 1.71
353.40 1.709
353.50 1.707
353.60 1.706
353.70 1.705
353.80 1.704
353.90 1.702
354.00 1.701
354.10 1.7
354.20 1.699
354.30 1.697
354.40 1.696
354.50 1.695
354.60 1.694
354.70 1.692
354.80 1.691
354.90 1.69
355.00 1.689
355.10 1.687
355.20 1.686
355.30 1.685
355.40 1.684
355.50 1.682
355.60 1.681
355.70 1.68
355.80 1.679
355.90 1.678
356.00 1.676
356.10 1.675
356.20 1.674
356.30 1.673
356.40 1.671
356.50 1.67
356.60 1.669
356.70 1.668
356.80 1.667
356.90 1.665
357.00 1.664
357.10 1.663
357.20 1.662
357.30 1.661
357.40 1.659
357.50 1.658
357.60 1.657
357.70 1.656
357.80 1.655
357.90 1.653
358.00 1.652
358.10 1.651
358.20 1.65
358.30 1.649
358.40 1.647
358.50 1.646
358.60 1.645
358.70 1.644
358.80 1.643
358.90 1.641
359.00 1.64
359.10 1.639
359.20 1.638
359.30 1.637
359.40 1.636
359.50 1.634
359.60 1.633
359.70 1.632
359.80 1.631
359.90 1.63
360.00 1.628
360.10 1.627
360.20 1.626
360.30 1.625
360.40 1.624
360.50 1.623
360.60 1.621
360.70 1.62
360.80 1.619
360.90 1.618
361.00 1.617
361.10 1.616
361.20 1.614
361.30 1.613
361.40 1.612
361.50 1.611
361.60 1.61
361.70 1.609
361.80 1.607
361.90 1.606
362.00 1.605
362.10 1.604
362.20 1.603
362.30 1.602
362.40 1.601
362.50 1.599
362.60 1.598
362.70 1.597
362.80 1.596
362.90 1.595
363.00 1.594
363.10 1.592
363.20 1.591
363.30 1.59
363.40 1.588
363.50 1.587
363.60 1.586
363.70 1.585
363.80 1.583
363.90 1.582
364.00 1.581
364.10 1.58
364.20 1.578
364.30 1.577
364.40 1.576
364.50 1.574
364.60 1.573
364.70 1.572
364.80 1.57
364.90 1.569
365.00 1.568
365.10 1.567
365.20 1.565
365.30 1.564
365.40 1.563
365.50 1.561
365.60 1.56
365.70 1.559
365.80 1.557
365.90 1.556
366.00 1.555
366.10 1.554
366.20 1.553
366.30 1.551
366.40 1.55
366.50 1.549
366.60 1.548
366.70 1.547
366.80 1.546
366.90 1.544
367.00 1.543
367.10 1.542
367.20 1.541
367.30 1.54
367.40 1.539
367.50 1.538
367.60 1.536
367.70 1.535
367.80 1.534
367.90 1.533
368.00 1.532
368.10 1.531
368.20 1.53
368.30 1.528
368.40 1.527
368.50 1.526
368.60 1.525
368.70 1.524
368.80 1.523
368.90 1.522
369.00 1.521
369.10 1.519
369.20 1.518
369.30 1.517
369.40 1.516
369.50 1.515
369.60 1.514
369.70 1.513
369.80 1.512
369.90 1.511
370.00 1.509
370.10 1.509
370.20 1.508
370.30 1.507
370.40 1.506
370.50 1.505
370.60 1.504
370.70 1.503
370.80 1.502
370.90 1.501
371.00 1.5
371.10 1.499
371.20 1.499
371.30 1.498
371.40 1.497
371.50 1.496
371.60 1.495
371.70 1.494
371.80 1.493
371.90 1.492
372.00 1.491
372.10 1.491
372.20 1.49
372.30 1.49
372.40 1.489
372.50 1.489
372.60 1.488
372.70 1.488
372.80 1.487
372.90 1.487
373.00 1.486
373.10 1.485
373.20 1.485
373.30 1.484
373.40 1.484
373.50 1.483
373.60 1.483
373.70 1.482
373.80 1.482
373.90 1.481
374.00 1.481
374.10 1.48
374.20 1.48
374.30 1.48
374.40 1.48
374.50 1.48
374.60 1.479
374.70 1.479
374.80 1.479
374.90 1.479
375.00 1.478
375.10 1.478
375.20 1.478
375.30 1.478
375.40 1.478
375.50 1.477
375.60 1.477
375.70 1.477
375.80 1.477
375.90 1.476
376.00 1.476
376.10 1.476
376.20 1.476
376.30 1.475
376.40 1.475
376.50 1.475
376.60 1.474
376.70 1.474
376.80 1.474
376.90 1.473
377.00 1.473
377.10 1.472
377.20 1.471
377.30 1.47
377.40 1.47
377.50 1.469
377.60 1.468
377.70 1.467
377.80 1.466
377.90 1.465
378.00 1.465
378.10 1.462
378.20 1.459
378.30 1.457
378.40 1.454
378.50 1.452
378.60 1.449
378.70 1.447
378.80 1.444
378.90 1.441
379.00 1.439
379.10 1.437
379.20 1.435
379.30 1.434
379.40 1.432
379.50 1.43
379.60 1.428
379.70 1.427
379.80 1.425
379.90 1.423
380.00 1.421
380.10 1.423
380.20 1.425
380.30 1.427
380.40 1.428
380.50 1.43
380.60 1.432
380.70 1.434
380.80 1.435
380.90 1.437
381.00 1.439
381.10 1.439
381.20 1.439
381.30 1.44
381.40 1.44
381.50 1.44
381.60 1.439
381.70 1.438
381.80 1.436
381.90 1.434
382.00 1.432
382.10 1.428
382.20 1.425
382.30 1.419
382.40 1.412
382.50 1.406
382.60 1.4
382.70 1.394
382.80 1.388
382.90 1.381
383.00 1.375
383.10 1.369
383.20 1.363
383.30 1.359
383.40 1.355
383.50 1.35
383.60 1.35
383.70 1.356
383.80 1.36
383.90 1.364
384.00 1.37
384.10 1.377
384.20 1.384
384.30 1.392
384.40 1.399
384.50 1.406
384.60 1.412
384.70 1.417
384.80 1.422
384.90 1.425
385.00 1.429
385.10 1.431
385.20 1.433
385.30 1.435
385.40 1.436
385.50 1.436
385.60 1.437
385.70 1.436
385.80 1.436
385.90 1.435
386.00 1.433
386.10 1.432
386.20 1.429
386.30 1.427
386.40 1.424
386.50 1.42
386.60 1.416
386.70 1.412
386.80 1.407
386.90 1.402
387.00 1.397
387.10 1.391
387.20 1.385
387.30 1.378
387.40 1.371
387.50 1.362
387.60 1.354
387.70 1.345
387.80 1.335
387.90 1.324
388.00 1.312
388.10 1.299
388.20 1.285
388.30 1.27
388.40 1.253
388.50 1.239
388.60 1.226
388.70 1.217
388.80 1.21
388.90 1.204
389.00 1.209
389.10 1.216
389.20 1.225
389.30 1.238
389.40 1.252
389.50 1.269
389.60 1.284
389.70 1.299
389.80 1.313
389.90 1.325
390.00 1.336
390.10 1.347
390.20 1.357
390.30 1.367
390.40 1.376
390.50 1.384
390.60 1.392
390.70 1.399
390.80 1.406
390.90 1.413
391.00 1.419
391.10 1.425
391.20 1.43
391.30 1.436
391.40 1.44
391.50 1.445
391.60 1.449
391.70 1.452
391.80 1.455
391.90 1.458
392.00 1.46
392.10 1.462
392.20 1.464
392.30 1.464
392.40 1.465
392.50 1.465
392.60 1.464
392.70 1.463
392.80 1.462
392.90 1.46
393.00 1.457
393.10 1.454
393.20 1.45
393.30 1.446
393.40 1.442
393.50 1.437
393.60 1.431
393.70 1.425
393.80 1.419
393.90 1.412
394.00 1.404
394.10 1.396
394.20 1.387
394.30 1.379
394.40 1.369
394.50 1.359
394.60 1.349
394.70 1.338
394.80 1.326
394.90 1.315
395.00 1.303
395.10 1.291
395.20 1.278
395.30 1.265
395.40 1.251
395.50 1.237
395.60 1.223
395.70 1.208
395.80 1.193
395.90 1.177
396.00 1.161
396.10 1.144
396.20 1.126
396.30 1.107
396.40 1.086
396.50 1.061
396.60 1.035
396.70 1.009
396.80 0.9897
396.90 0.9704
397.00 0.9509
397.10 0.9683
397.20 0.9859
397.30 1.003
397.40 1.029
397.50 1.054
397.60 1.078
397.70 1.099
397.80 1.118
397.90 1.136
398.00 1.152
398.10 1.167
398.20 1.182
398.30 1.197
398.40 1.212
398.50 1.226
398.60 1.24
398.70 1.253
398.80 1.267
398.90 1.279
399.00 1.292
399.10 1.305
399.20 1.317
399.30 1.329
399.40 1.34
399.50 1.352
399.60 1.363
399.70 1.374
399.80 1.384
399.90 1.395
400.00 1.405
400.10 1.414
400.20 1.423
400.30 1.433
400.40 1.441
400.50 1.449
400.60 1.457
400.70 1.465
400.80 1.472
400.90 1.479
401.00 1.486
401.10 1.492
401.20 1.499
401.30 1.504
401.40 1.509
401.50 1.515
401.60 1.519
401.70 1.524
401.80 1.528
401.90 1.532
402.00 1.535
402.10 1.539
402.20 1.541
402.30 1.544
402.40 1.546
402.50 1.548
402.60 1.55
402.70 1.551
402.80 1.552
402.90 1.553
403.00 1.553
403.10 1.553
403.20 1.553
403.30 1.553
403.40 1.552
403.50 1.551
403.60 1.549
403.70 1.547
403.80 1.545
403.90 1.543
404.00 1.54
404.10 1.537
404.20 1.533
404.30 1.53
404.40 1.526
404.50 1.521
404.60 1.517
404.70 1.512
404.80 1.506
404.90 1.501
405.00 1.495
405.10 1.489
405.20 1.482
405.30 1.475
405.40 1.468
405.50 1.46
405.60 1.452
405.70 1.444
405.80 1.436
405.90 1.427
406.00 1.418
406.10 1.408
406.20 1.399
406.30 1.389
406.40 1.378
406.50 1.368
406.60 1.357
406.70 1.345
406.80 1.334
406.90 1.322
407.00 1.31
407.10 1.297
407.20 1.284
407.30 1.271
407.40 1.258
407.50 1.244
407.60 1.23
407.70 1.216
407.80 1.202
407.90 1.187
408.00 1.172
408.10 1.157
408.20 1.142
408.30 1.126
408.40 1.111
408.50 1.095
408.60 1.079
408.70 1.062
408.80 1.046
408.90 1.029
409.00 1.012
409.10 0.9952
409.20 0.9781
409.30 0.961
409.40 0.9426
409.50 0.9229
409.60 0.902
409.70 0.8773
409.80 0.8508
409.90 0.8227
410.00 0.7962
410.10 0.7758
410.20 0.7613
410.30 0.7841
410.40 0.8089
410.50 0.8357
410.60 0.862
410.70 0.8864
410.80 0.9087
410.90 0.9275
411.00 0.9453
411.10 0.9621
411.20 0.978
411.30 0.9938
411.40 1.01
411.50 1.025
411.60 1.041
411.70 1.056
411.80 1.071
411.90 1.085
412.00 1.1
412.10 1.114
412.20 1.128
412.30 1.142
412.40 1.156
412.50 1.169
412.60 1.183
412.70 1.196
412.80 1.209
412.90 1.221
413.00 1.234
413.10 1.246
413.20 1.258
413.30 1.269
413.40 1.281
413.50 1.292
413.60 1.302
413.70 1.313
413.80 1.324
413.90 1.334
414.00 1.343
414.10 1.353
414.20 1.363
414.30 1.372
414.40 1.381
414.50 1.39
414.60 1.398
414.70 1.406
414.80 1.415
414.90 1.422
415.00 1.43
415.10 1.438
415.20 1.445
415.30 1.452
415.40 1.459
415.50 1.466
415.60 1.472
415.70 1.479
415.80 1.485
415.90 1.491
416.00 1.497
416.10 1.502
416.20 1.508
416.30 1.513
416.40 1.518
416.50 1.523
416.60 1.528
416.70 1.533
416.80 1.537
416.90 1.541
417.00 1.546
417.10 1.55
417.20 1.553
417.30 1.557
417.40 1.561
417.50 1.564
417.60 1.567
417.70 1.571
417.80 1.574
417.90 1.576
418.00 1.579
418.10 1.582
418.20 1.584
418.30 1.587
418.40 1.589
418.50 1.591
418.60 1.593
418.70 1.595
418.80 1.597
418.90 1.599
419.00 1.6
419.10 1.602
419.20 1.603
419.30 1.604
419.40 1.606
419.50 1.607
419.60 1.608
419.70 1.609
419.80 1.609
419.90 1.61
420.00 1.611
420.10 1.611
420.20 1.612
420.30 1.612
420.40 1.612
420.50 1.612
420.60 1.612
420.70 1.612
420.80 1.612
420.90 1.612
421.00 1.612
421.10 1.612
421.20 1.611
421.30 1.611
421.40 1.61
421.50 1.609
421.60 1.609
421.70 1.608
421.80 1.607
421.90 1.606
422.00 1.605
422.10 1.604
422.20 1.602
422.30 1.601
422.40 1.6
422.50 1.598
422.60 1.597
422.70 1.595
422.80 1.593
422.90 1.591
423.00 1.589
423.10 1.588
423.20 1.586
423.30 1.583
423.40 1.581
423.50 1.579
423.60 1.577
423.70 1.574
423.80 1.572
423.90 1.569
424.00 1.566
424.10 1.564
424.20 1.561
424.30 1.558
424.40 1.555
424.50 1.552
424.60 1.548
424.70 1.545
424.80 1.542
424.90 1.538
425.00 1.535
425.10 1.531
425.20 1.527
425.30 1.523
425.40 1.519
425.50 1.515
425.60 1.511
425.70 1.507
425.80 1.503
425.90 1.498
426.00 1.494
426.10 1.489
426.20 1.483
426.30 1.478
426.40 1.473
426.50 1.467
426.60 1.462
426.70 1.457
426.80 1.451
426.90 1.446
427.00 1.44
427.10 1.434
427.20 1.428
427.30 1.422
427.40 1.416
427.50 1.41
427.60 1.403
427.70 1.397
427.80 1.39
427.90 1.383
428.00 1.376
428.10 1.369
428.20 1.362
428.30 1.354
428.40 1.347
428.50 1.339
428.60 1.331
428.70 1.323
428.80 1.315
428.90 1.307
429.00 1.299
429.10 1.29
429.20 1.281
429.30 1.272
429.40 1.263
429.50 1.254
429.60 1.245
429.70 1.236
429.80 1.226
429.90 1.216
430.00 1.206
430.10 1.196
430.20 1.186
430.30 1.176
430.40 1.165
430.50 1.154
430.60 1.144
430.70 1.133
430.80 1.122
430.90 1.11
431.00 1.099
431.10 1.087
431.20 1.075
431.30 1.063
431.40 1.051
431.50 1.039
431.60 1.027
431.70 1.014
431.80 1.001
431.90 0.9885
432.00 0.9755
432.10 0.9623
432.20 0.9487
432.30 0.935
432.40 0.921
432.50 0.9065
432.60 0.8917
432.70 0.8767
432.80 0.8614
432.90 0.8461
433.00 0.8309
433.10 0.8162
433.20 0.8014
433.30 0.7866
433.40 0.7708
433.50 0.7536
433.60 0.735
433.70 0.7103
433.80 0.6812
433.90 0.6478
434.00 0.6015
434.10 0.6022
434.20 0.65
434.30 0.6822
434.40 0.7101
434.50 0.7337
434.60 0.7512
434.70 0.7675
434.80 0.7824
434.90 0.7963
435.00 0.8101
435.10 0.8239
435.20 0.8382
435.30 0.8524
435.40 0.8666
435.50 0.8805
435.60 0.8941
435.70 0.9074
435.80 0.9201
435.90 0.9326
436.00 0.9448
436.10 0.9567
436.20 0.9684
436.30 0.98
436.40 0.9913
436.50 1.002
436.60 1.013
436.70 1.024
436.80 1.035
436.90 1.045
437.00 1.055
437.10 1.065
437.20 1.075
437.30 1.085
437.40 1.094
437.50 1.104
437.60 1.113
437.70 1.122
437.80 1.13
437.90 1.139
438.00 1.147
438.10 1.156
438.20 1.164
438.30 1.172
438.40 1.18
438.50 1.187
438.60 1.195
438.70 1.202
438.80 1.209
438.90 1.216
439.00 1.223
439.10 1.23
439.20 1.236
439.30 1.242
439.40 1.249
439.50 1.255
439.60 1.261
439.70 1.266
439.80 1.272
439.90 1.278
440.00 1.283
440.10 1.288
440.20 1.293
440.30 1.298
440.40 1.303
440.50 1.308
440.60 1.312
440.70 1.317
440.80 1.321
440.90 1.325
441.00 1.329
441.10 1.333
441.20 1.337
441.30 1.341
441.40 1.345
441.50 1.348
441.60 1.352
441.70 1.355
441.80 1.358
441.90 1.362
442.00 1.365
442.10 1.368
442.20 1.37
442.30 1.373
442.40 1.376
442.50 1.378
442.60 1.381
442.70 1.383
442.80 1.386
442.90 1.388
443.00 1.39
443.10 1.392
443.20 1.394
443.30 1.396
443.40 1.398
443.50 1.4
443.60 1.402
443.70 1.404
443.80 1.405
443.90 1.407
444.00 1.408
444.10 1.41
444.20 1.411
444.30 1.413
444.40 1.414
444.50 1.415
444.60 1.416
444.70 1.418
444.80 1.419
444.90 1.42
445.00 1.421
445.10 1.422
445.20 1.423
445.30 1.424
445.40 1.424
445.50 1.425
445.60 1.426
445.70 1.427
445.80 1.427
445.90 1.428
446.00 1.428
446.10 1.429
446.20 1.43
446.30 1.43
446.40 1.43
446.50 1.431
446.60 1.431
446.70 1.432
446.80 1.432
446.90 1.432
447.00 1.432
447.10 1.433
447.20 1.433
447.30 1.433
447.40 1.433
447.50 1.433
447.60 1.433
447.70 1.433
447.80 1.433
447.90 1.433
448.00 1.433
448.10 1.433
448.20 1.433
448.30 1.433
448.40 1.433
448.50 1.433
448.60 1.433
448.70 1.433
448.80 1.433
448.90 1.432
449.00 1.433
449.10 1.432
449.20 1.432
449.30 1.432
449.40 1.432
449.50 1.431
449.60 1.431
449.70 1.431
449.80 1.43
449.90 1.43
450.00 1.43
450.10 1.429
450.20 1.429
450.30 1.429
450.40 1.428
450.50 1.428
450.60 1.427
450.70 1.427
450.80 1.426
450.90 1.426
451.00 1.425
451.10 1.425
451.20 1.424
451.30 1.424
451.40 1.423
451.50 1.423
451.60 1.422
451.70 1.422
451.80 1.421
451.90 1.42
452.00 1.42
452.10 1.419
452.20 1.419
452.30 1.418
452.40 1.417
452.50 1.417
452.60 1.416
452.70 1.415
452.80 1.415
452.90 1.414
453.00 1.413
453.10 1.413
453.20 1.412
453.30 1.411
453.40 1.411
453.50 1.41
