# Version 2.1 - nm, norm@500 to 1, cut digits, bergeron_40000_80.dat_40000
# Wavelength(nm)  Flambda(ergs/cm^s/s/nm)
300.00 5.846
300.10 5.839
300.20 5.833
300.30 5.826
300.40 5.819
300.50 5.812
300.60 5.805
300.70 5.798
300.80 5.791
300.90 5.785
301.00 5.778
301.10 5.771
301.20 5.764
301.30 5.757
301.40 5.751
301.50 5.744
301.60 5.737
301.70 5.73
301.80 5.723
301.90 5.717
302.00 5.71
302.10 5.703
302.20 5.697
302.30 5.69
302.40 5.683
302.50 5.677
302.60 5.67
302.70 5.663
302.80 5.657
302.90 5.65
303.00 5.643
303.10 5.637
303.20 5.63
303.30 5.624
303.40 5.617
303.50 5.61
303.60 5.604
303.70 5.597
303.80 5.591
303.90 5.584
304.00 5.578
304.10 5.571
304.20 5.565
304.30 5.558
304.40 5.552
304.50 5.545
304.60 5.539
304.70 5.532
304.80 5.526
304.90 5.519
305.00 5.513
305.10 5.507
305.20 5.5
305.30 5.494
305.40 5.487
305.50 5.481
305.60 5.475
305.70 5.468
305.80 5.462
305.90 5.455
306.00 5.449
306.10 5.443
306.20 5.436
306.30 5.43
306.40 5.424
306.50 5.418
306.60 5.411
306.70 5.405
306.80 5.399
306.90 5.392
307.00 5.386
307.10 5.38
307.20 5.374
307.30 5.368
307.40 5.361
307.50 5.355
307.60 5.349
307.70 5.343
307.80 5.337
307.90 5.33
308.00 5.324
308.10 5.318
308.20 5.312
308.30 5.306
308.40 5.3
308.50 5.294
308.60 5.287
308.70 5.281
308.80 5.275
308.90 5.269
309.00 5.263
309.10 5.257
309.20 5.251
309.30 5.245
309.40 5.239
309.50 5.233
309.60 5.227
309.70 5.221
309.80 5.215
309.90 5.209
310.00 5.203
310.10 5.197
310.20 5.191
310.30 5.185
310.40 5.179
310.50 5.173
310.60 5.167
310.70 5.161
310.80 5.155
310.90 5.15
311.00 5.144
311.10 5.138
311.20 5.132
311.30 5.126
311.40 5.12
311.50 5.114
311.60 5.108
311.70 5.103
311.80 5.097
311.90 5.091
312.00 5.085
312.10 5.079
312.20 5.074
312.30 5.068
312.40 5.062
312.50 5.056
312.60 5.05
312.70 5.045
312.80 5.039
312.90 5.033
313.00 5.027
313.10 5.022
313.20 5.016
313.30 5.01
313.40 5.005
313.50 4.999
313.60 4.993
313.70 4.988
313.80 4.982
313.90 4.976
314.00 4.971
314.10 4.965
314.20 4.959
314.30 4.954
314.40 4.948
314.50 4.943
314.60 4.937
314.70 4.931
314.80 4.926
314.90 4.92
315.00 4.915
315.10 4.909
315.20 4.903
315.30 4.898
315.40 4.892
315.50 4.887
315.60 4.881
315.70 4.876
315.80 4.87
315.90 4.865
316.00 4.859
316.10 4.854
316.20 4.848
316.30 4.843
316.40 4.837
316.50 4.832
316.60 4.827
316.70 4.821
316.80 4.816
316.90 4.81
317.00 4.805
317.10 4.799
317.20 4.794
317.30 4.789
317.40 4.783
317.50 4.778
317.60 4.773
317.70 4.767
317.80 4.762
317.90 4.757
318.00 4.751
318.10 4.746
318.20 4.741
318.30 4.735
318.40 4.73
318.50 4.725
318.60 4.719
318.70 4.714
318.80 4.709
318.90 4.703
319.00 4.698
319.10 4.693
319.20 4.688
319.30 4.683
319.40 4.677
319.50 4.672
319.60 4.667
319.70 4.662
319.80 4.656
319.90 4.651
320.00 4.646
320.10 4.641
320.20 4.636
320.30 4.631
320.40 4.625
320.50 4.62
320.60 4.615
320.70 4.61
320.80 4.605
320.90 4.6
321.00 4.595
321.10 4.589
321.20 4.584
321.30 4.579
321.40 4.574
321.50 4.569
321.60 4.564
321.70 4.559
321.80 4.554
321.90 4.549
322.00 4.544
322.10 4.539
322.20 4.534
322.30 4.529
322.40 4.524
322.50 4.519
322.60 4.514
322.70 4.509
322.80 4.504
322.90 4.499
323.00 4.494
323.10 4.489
323.20 4.484
323.30 4.479
323.40 4.474
323.50 4.469
323.60 4.464
323.70 4.459
323.80 4.454
323.90 4.449
324.00 4.444
324.10 4.439
324.20 4.435
324.30 4.43
324.40 4.425
324.50 4.42
324.60 4.415
324.70 4.41
324.80 4.405
324.90 4.4
325.00 4.396
325.10 4.391
325.20 4.386
325.30 4.381
325.40 4.376
325.50 4.372
325.60 4.367
325.70 4.362
325.80 4.357
325.90 4.352
326.00 4.348
326.10 4.343
326.20 4.338
326.30 4.333
326.40 4.329
326.50 4.324
326.60 4.319
326.70 4.314
326.80 4.31
326.90 4.305
327.00 4.3
327.10 4.296
327.20 4.291
327.30 4.286
327.40 4.281
327.50 4.277
327.60 4.272
327.70 4.267
327.80 4.263
327.90 4.258
328.00 4.254
328.10 4.249
328.20 4.244
328.30 4.24
328.40 4.235
328.50 4.23
328.60 4.226
328.70 4.221
328.80 4.217
328.90 4.212
329.00 4.207
329.10 4.203
329.20 4.198
329.30 4.194
329.40 4.189
329.50 4.185
329.60 4.18
329.70 4.176
329.80 4.171
329.90 4.166
330.00 4.162
330.10 4.157
330.20 4.153
330.30 4.148
330.40 4.144
330.50 4.14
330.60 4.135
330.70 4.131
330.80 4.126
330.90 4.122
331.00 4.117
331.10 4.113
331.20 4.108
331.30 4.104
331.40 4.099
331.50 4.095
331.60 4.091
331.70 4.086
331.80 4.082
331.90 4.077
332.00 4.073
332.10 4.069
332.20 4.064
332.30 4.06
332.40 4.055
332.50 4.051
332.60 4.047
332.70 4.042
332.80 4.038
332.90 4.034
333.00 4.029
333.10 4.025
333.20 4.021
333.30 4.016
333.40 4.012
333.50 4.008
333.60 4.003
333.70 3.999
333.80 3.995
333.90 3.99
334.00 3.986
334.10 3.982
334.20 3.978
334.30 3.973
334.40 3.969
334.50 3.965
334.60 3.961
334.70 3.956
334.80 3.952
334.90 3.948
335.00 3.944
335.10 3.94
335.20 3.935
335.30 3.931
335.40 3.927
335.50 3.923
335.60 3.918
335.70 3.914
335.80 3.91
335.90 3.906
336.00 3.902
336.10 3.898
336.20 3.893
336.30 3.889
336.40 3.885
336.50 3.881
336.60 3.877
336.70 3.873
336.80 3.869
336.90 3.865
337.00 3.86
337.10 3.856
337.20 3.852
337.30 3.848
337.40 3.844
337.50 3.84
337.60 3.836
337.70 3.832
337.80 3.828
337.90 3.824
338.00 3.82
338.10 3.816
338.20 3.812
338.30 3.807
338.40 3.803
338.50 3.799
338.60 3.795
338.70 3.791
338.80 3.787
338.90 3.783
339.00 3.779
339.10 3.775
339.20 3.771
339.30 3.767
339.40 3.763
339.50 3.759
339.60 3.755
339.70 3.751
339.80 3.748
339.90 3.744
340.00 3.74
340.10 3.736
340.20 3.732
340.30 3.728
340.40 3.724
340.50 3.72
340.60 3.716
340.70 3.712
340.80 3.708
340.90 3.704
341.00 3.7
341.10 3.697
341.20 3.693
341.30 3.689
341.40 3.685
341.50 3.681
341.60 3.677
341.70 3.673
341.80 3.669
341.90 3.666
342.00 3.662
342.10 3.658
342.20 3.654
342.30 3.65
342.40 3.646
342.50 3.643
342.60 3.639
342.70 3.635
342.80 3.631
342.90 3.627
343.00 3.624
343.10 3.62
343.20 3.616
343.30 3.612
343.40 3.608
343.50 3.605
343.60 3.601
343.70 3.597
343.80 3.593
343.90 3.59
344.00 3.586
344.10 3.582
344.20 3.578
344.30 3.575
344.40 3.571
344.50 3.567
344.60 3.563
344.70 3.56
344.80 3.556
344.90 3.552
345.00 3.549
345.10 3.545
345.20 3.541
345.30 3.538
345.40 3.534
345.50 3.53
345.60 3.526
345.70 3.523
345.80 3.519
345.90 3.515
346.00 3.512
346.10 3.508
346.20 3.505
346.30 3.501
346.40 3.497
346.50 3.494
346.60 3.49
346.70 3.486
346.80 3.483
346.90 3.479
347.00 3.476
347.10 3.472
347.20 3.468
347.30 3.465
347.40 3.461
347.50 3.458
347.60 3.454
347.70 3.451
347.80 3.447
347.90 3.443
348.00 3.44
348.10 3.436
348.20 3.433
348.30 3.429
348.40 3.426
348.50 3.422
348.60 3.419
348.70 3.415
348.80 3.412
348.90 3.408
349.00 3.405
349.10 3.401
349.20 3.398
349.30 3.394
349.40 3.391
349.50 3.387
349.60 3.384
349.70 3.38
349.80 3.377
349.90 3.373
350.00 3.37
350.10 3.366
350.20 3.363
350.30 3.359
350.40 3.356
350.50 3.352
350.60 3.349
350.70 3.346
350.80 3.342
350.90 3.339
351.00 3.335
351.10 3.332
351.20 3.328
351.30 3.325
351.40 3.322
351.50 3.318
351.60 3.315
351.70 3.311
351.80 3.308
351.90 3.305
352.00 3.301
352.10 3.298
352.20 3.295
352.30 3.291
352.40 3.288
352.50 3.284
352.60 3.281
352.70 3.278
352.80 3.274
352.90 3.271
353.00 3.268
353.10 3.264
353.20 3.261
353.30 3.258
353.40 3.254
353.50 3.251
353.60 3.248
353.70 3.244
353.80 3.241
353.90 3.238
354.00 3.235
354.10 3.231
354.20 3.228
354.30 3.225
354.40 3.221
354.50 3.218
354.60 3.215
354.70 3.212
354.80 3.208
354.90 3.205
355.00 3.202
355.10 3.199
355.20 3.195
355.30 3.192
355.40 3.189
355.50 3.186
355.60 3.182
355.70 3.179
355.80 3.176
355.90 3.173
356.00 3.17
356.10 3.166
356.20 3.163
356.30 3.16
356.40 3.157
356.50 3.154
356.60 3.15
356.70 3.147
356.80 3.144
356.90 3.141
357.00 3.138
357.10 3.135
357.20 3.131
357.30 3.128
357.40 3.125
357.50 3.122
357.60 3.119
357.70 3.116
357.80 3.113
357.90 3.109
358.00 3.106
358.10 3.103
358.20 3.1
358.30 3.097
358.40 3.094
358.50 3.091
358.60 3.088
358.70 3.084
358.80 3.081
358.90 3.078
359.00 3.075
359.10 3.072
359.20 3.069
359.30 3.066
359.40 3.063
359.50 3.06
359.60 3.057
359.70 3.054
359.80 3.051
359.90 3.048
360.00 3.044
360.10 3.041
360.20 3.038
360.30 3.035
360.40 3.032
360.50 3.029
360.60 3.026
360.70 3.023
360.80 3.02
360.90 3.017
361.00 3.014
361.10 3.011
361.20 3.008
361.30 3.005
361.40 3.002
361.50 2.999
361.60 2.996
361.70 2.993
361.80 2.99
361.90 2.987
362.00 2.984
362.10 2.981
362.20 2.978
362.30 2.975
362.40 2.972
362.50 2.969
362.60 2.966
362.70 2.964
362.80 2.961
362.90 2.958
363.00 2.955
363.10 2.952
363.20 2.949
363.30 2.946
363.40 2.943
363.50 2.94
363.60 2.937
363.70 2.934
363.80 2.931
363.90 2.928
364.00 2.926
364.10 2.923
364.20 2.92
364.30 2.917
364.40 2.914
364.50 2.911
364.60 2.908
364.70 2.905
364.80 2.902
364.90 2.9
365.00 2.897
365.10 2.894
365.20 2.891
365.30 2.888
365.40 2.885
365.50 2.882
365.60 2.88
365.70 2.877
365.80 2.874
365.90 2.871
366.00 2.868
366.10 2.865
366.20 2.862
366.30 2.859
366.40 2.856
366.50 2.853
366.60 2.85
366.70 2.848
366.80 2.845
366.90 2.842
367.00 2.839
367.10 2.836
367.20 2.833
367.30 2.83
367.40 2.827
367.50 2.824
367.60 2.821
367.70 2.818
367.80 2.815
367.90 2.812
368.00 2.809
368.10 2.807
368.20 2.804
368.30 2.801
368.40 2.798
368.50 2.795
368.60 2.792
368.70 2.789
368.80 2.786
368.90 2.783
369.00 2.78
369.10 2.778
369.20 2.775
369.30 2.772
369.40 2.769
369.50 2.766
369.60 2.763
369.70 2.76
369.80 2.757
369.90 2.755
370.00 2.752
370.10 2.749
370.20 2.746
370.30 2.743
370.40 2.74
370.50 2.738
370.60 2.735
370.70 2.732
370.80 2.729
370.90 2.726
371.00 2.724
371.10 2.721
371.20 2.718
371.30 2.715
371.40 2.713
371.50 2.71
371.60 2.707
371.70 2.704
371.80 2.701
371.90 2.699
372.00 2.696
372.10 2.693
372.20 2.691
372.30 2.688
372.40 2.685
372.50 2.683
372.60 2.68
372.70 2.677
372.80 2.675
372.90 2.672
373.00 2.669
373.10 2.667
373.20 2.664
373.30 2.661
373.40 2.659
373.50 2.656
373.60 2.653
373.70 2.651
373.80 2.648
373.90 2.645
374.00 2.643
374.10 2.64
374.20 2.638
374.30 2.635
374.40 2.633
374.50 2.63
374.60 2.627
374.70 2.625
374.80 2.622
374.90 2.62
375.00 2.617
375.10 2.615
375.20 2.612
375.30 2.61
375.40 2.607
375.50 2.605
375.60 2.602
375.70 2.599
375.80 2.597
375.90 2.594
376.00 2.592
376.10 2.589
376.20 2.587
376.30 2.585
376.40 2.582
376.50 2.58
376.60 2.577
376.70 2.575
376.80 2.572
376.90 2.57
377.00 2.567
377.10 2.565
377.20 2.563
377.30 2.561
377.40 2.559
377.50 2.556
377.60 2.554
377.70 2.552
377.80 2.55
377.90 2.547
378.00 2.545
378.10 2.543
378.20 2.541
378.30 2.538
378.40 2.536
378.50 2.534
378.60 2.531
378.70 2.529
378.80 2.527
378.90 2.524
379.00 2.522
379.10 2.52
379.20 2.518
379.30 2.515
379.40 2.513
379.50 2.511
379.60 2.509
379.70 2.507
379.80 2.504
379.90 2.502
380.00 2.5
380.10 2.498
380.20 2.496
380.30 2.495
380.40 2.493
380.50 2.491
380.60 2.489
380.70 2.487
380.80 2.486
380.90 2.484
381.00 2.482
381.10 2.48
381.20 2.478
381.30 2.476
381.40 2.474
381.50 2.472
381.60 2.469
381.70 2.467
381.80 2.465
381.90 2.462
382.00 2.46
382.10 2.457
382.20 2.455
382.30 2.452
382.40 2.449
382.50 2.446
382.60 2.443
382.70 2.44
382.80 2.437
382.90 2.435
383.00 2.432
383.10 2.429
383.20 2.426
383.30 2.423
383.40 2.421
383.50 2.419
383.60 2.417
383.70 2.416
383.80 2.415
383.90 2.414
384.00 2.414
384.10 2.413
384.20 2.412
384.30 2.412
384.40 2.411
384.50 2.411
384.60 2.41
384.70 2.409
384.80 2.408
384.90 2.407
385.00 2.406
385.10 2.405
385.20 2.403
385.30 2.402
385.40 2.4
385.50 2.399
385.60 2.397
385.70 2.395
385.80 2.393
385.90 2.39
386.00 2.388
386.10 2.386
386.20 2.383
386.30 2.38
386.40 2.377
386.50 2.374
386.60 2.371
386.70 2.367
386.80 2.364
386.90 2.36
387.00 2.356
387.10 2.352
387.20 2.348
387.30 2.344
387.40 2.339
387.50 2.335
387.60 2.33
387.70 2.325
387.80 2.32
387.90 2.315
388.00 2.31
388.10 2.305
388.20 2.3
388.30 2.295
388.40 2.29
388.50 2.286
388.60 2.281
388.70 2.278
388.80 2.275
388.90 2.272
389.00 2.271
389.10 2.271
389.20 2.272
389.30 2.273
389.40 2.275
389.50 2.277
389.60 2.279
389.70 2.281
389.80 2.283
389.90 2.285
390.00 2.287
390.10 2.289
390.20 2.29
390.30 2.292
390.40 2.294
390.50 2.295
390.60 2.296
390.70 2.297
390.80 2.298
390.90 2.299
391.00 2.3
391.10 2.3
391.20 2.301
391.30 2.301
391.40 2.301
391.50 2.301
391.60 2.3
391.70 2.3
391.80 2.299
391.90 2.298
392.00 2.297
392.10 2.296
392.20 2.295
392.30 2.293
392.40 2.291
392.50 2.289
392.60 2.287
392.70 2.285
392.80 2.283
392.90 2.28
393.00 2.277
393.10 2.274
393.20 2.271
393.30 2.268
393.40 2.264
393.50 2.26
393.60 2.256
393.70 2.252
393.80 2.248
393.90 2.243
394.00 2.238
394.10 2.233
394.20 2.228
394.30 2.222
394.40 2.216
394.50 2.21
394.60 2.204
394.70 2.198
394.80 2.191
394.90 2.184
395.00 2.177
395.10 2.169
395.20 2.162
395.30 2.154
395.40 2.145
395.50 2.137
395.60 2.128
395.70 2.119
395.80 2.11
395.90 2.101
396.00 2.091
396.10 2.081
396.20 2.072
396.30 2.062
396.40 2.052
396.50 2.042
396.60 2.032
396.70 2.022
396.80 2.012
396.90 2.003
397.00 1.995
397.10 2
397.20 2.005
397.30 2.011
397.40 2.018
397.50 2.025
397.60 2.032
397.70 2.039
397.80 2.046
397.90 2.052
398.00 2.059
398.10 2.065
398.20 2.072
398.30 2.078
398.40 2.083
398.50 2.089
398.60 2.094
398.70 2.1
398.80 2.105
398.90 2.109
399.00 2.114
399.10 2.118
399.20 2.122
399.30 2.126
399.40 2.129
399.50 2.133
399.60 2.136
399.70 2.139
399.80 2.141
399.90 2.144
400.00 2.146
400.10 2.148
400.20 2.15
400.30 2.152
400.40 2.154
400.50 2.155
400.60 2.157
400.70 2.158
400.80 2.159
400.90 2.16
401.00 2.16
401.10 2.161
401.20 2.161
401.30 2.162
401.40 2.162
401.50 2.162
401.60 2.162
401.70 2.162
401.80 2.161
401.90 2.161
402.00 2.161
402.10 2.16
402.20 2.159
402.30 2.158
402.40 2.157
402.50 2.156
402.60 2.155
402.70 2.154
402.80 2.153
402.90 2.151
403.00 2.15
403.10 2.148
403.20 2.146
403.30 2.144
403.40 2.143
403.50 2.141
403.60 2.138
403.70 2.136
403.80 2.134
403.90 2.131
404.00 2.129
404.10 2.126
404.20 2.124
404.30 2.121
404.40 2.118
404.50 2.115
404.60 2.112
404.70 2.109
404.80 2.105
404.90 2.102
405.00 2.098
405.10 2.094
405.20 2.091
405.30 2.087
405.40 2.082
405.50 2.078
405.60 2.074
405.70 2.069
405.80 2.064
405.90 2.06
406.00 2.055
406.10 2.049
406.20 2.044
406.30 2.039
406.40 2.033
406.50 2.027
406.60 2.021
406.70 2.014
406.80 2.008
406.90 2.001
407.00 1.994
407.10 1.987
407.20 1.98
407.30 1.972
407.40 1.964
407.50 1.956
407.60 1.947
407.70 1.938
407.80 1.929
407.90 1.92
408.00 1.91
408.10 1.9
408.20 1.89
408.30 1.879
408.40 1.868
408.50 1.857
408.60 1.845
408.70 1.833
408.80 1.82
408.90 1.808
409.00 1.795
409.10 1.781
409.20 1.767
409.30 1.753
409.40 1.739
409.50 1.724
409.60 1.71
409.70 1.695
409.80 1.681
409.90 1.668
410.00 1.66
410.10 1.656
410.20 1.658
410.30 1.655
410.40 1.658
410.50 1.666
410.60 1.677
410.70 1.689
410.80 1.7
410.90 1.712
411.00 1.723
411.10 1.735
411.20 1.745
411.30 1.756
411.40 1.766
411.50 1.776
411.60 1.785
411.70 1.794
411.80 1.803
411.90 1.811
412.00 1.819
412.10 1.827
412.20 1.834
412.30 1.841
412.40 1.847
412.50 1.854
412.60 1.859
412.70 1.865
412.80 1.87
412.90 1.875
413.00 1.88
413.10 1.884
413.20 1.889
413.30 1.893
413.40 1.896
413.50 1.9
413.60 1.903
413.70 1.906
413.80 1.909
413.90 1.912
414.00 1.914
414.10 1.917
414.20 1.919
414.30 1.921
414.40 1.923
414.50 1.924
414.60 1.926
414.70 1.927
414.80 1.929
414.90 1.93
415.00 1.931
415.10 1.932
415.20 1.933
415.30 1.933
415.40 1.934
415.50 1.934
415.60 1.935
415.70 1.935
415.80 1.935
415.90 1.936
416.00 1.936
416.10 1.936
416.20 1.936
416.30 1.936
416.40 1.935
416.50 1.935
416.60 1.935
416.70 1.934
416.80 1.934
416.90 1.934
417.00 1.933
417.10 1.933
417.20 1.932
417.30 1.931
417.40 1.931
417.50 1.93
417.60 1.929
417.70 1.928
417.80 1.927
417.90 1.926
418.00 1.926
418.10 1.925
418.20 1.924
418.30 1.923
418.40 1.922
418.50 1.921
418.60 1.92
418.70 1.918
418.80 1.917
418.90 1.916
419.00 1.915
419.10 1.914
419.20 1.913
419.30 1.911
419.40 1.91
419.50 1.909
419.60 1.907
419.70 1.906
419.80 1.905
419.90 1.903
420.00 1.902
420.10 1.901
420.20 1.899
420.30 1.898
420.40 1.896
420.50 1.895
420.60 1.894
420.70 1.892
420.80 1.891
420.90 1.889
421.00 1.888
421.10 1.886
421.20 1.885
421.30 1.883
421.40 1.881
421.50 1.88
421.60 1.878
421.70 1.877
421.80 1.875
421.90 1.873
422.00 1.872
422.10 1.87
422.20 1.869
422.30 1.867
422.40 1.865
422.50 1.864
422.60 1.862
422.70 1.86
422.80 1.858
422.90 1.857
423.00 1.855
423.10 1.853
423.20 1.852
423.30 1.85
423.40 1.848
423.50 1.846
423.60 1.844
423.70 1.843
423.80 1.841
423.90 1.839
424.00 1.837
424.10 1.835
424.20 1.833
424.30 1.831
424.40 1.829
424.50 1.827
424.60 1.826
424.70 1.824
424.80 1.822
424.90 1.82
425.00 1.818
425.10 1.816
425.20 1.813
425.30 1.811
425.40 1.809
425.50 1.807
425.60 1.805
425.70 1.803
425.80 1.801
425.90 1.798
426.00 1.796
426.10 1.794
426.20 1.792
426.30 1.789
426.40 1.787
426.50 1.785
426.60 1.782
426.70 1.78
426.80 1.777
426.90 1.775
427.00 1.772
427.10 1.77
427.20 1.767
427.30 1.764
427.40 1.761
427.50 1.759
427.60 1.756
427.70 1.753
427.80 1.75
427.90 1.747
428.00 1.744
428.10 1.741
428.20 1.738
428.30 1.734
428.40 1.731
428.50 1.727
428.60 1.724
428.70 1.72
428.80 1.717
428.90 1.713
429.00 1.709
429.10 1.705
429.20 1.701
429.30 1.697
429.40 1.693
429.50 1.688
429.60 1.684
429.70 1.679
429.80 1.674
429.90 1.669
430.00 1.664
430.10 1.659
430.20 1.653
430.30 1.648
430.40 1.642
430.50 1.636
430.60 1.63
430.70 1.624
430.80 1.617
430.90 1.611
431.00 1.604
431.10 1.597
431.20 1.589
431.30 1.582
431.40 1.574
431.50 1.566
431.60 1.557
431.70 1.549
431.80 1.54
431.90 1.53
432.00 1.52
432.10 1.511
432.20 1.5
432.30 1.489
432.40 1.478
432.50 1.467
432.60 1.455
432.70 1.443
432.80 1.43
432.90 1.417
433.00 1.404
433.10 1.39
433.20 1.376
433.30 1.361
433.40 1.347
433.50 1.332
433.60 1.317
433.70 1.303
433.80 1.289
433.90 1.275
434.00 1.259
434.10 1.258
434.20 1.273
434.30 1.285
434.40 1.297
434.50 1.309
434.60 1.322
434.70 1.334
434.80 1.347
434.90 1.359
435.00 1.371
435.10 1.382
435.20 1.393
435.30 1.404
435.40 1.414
435.50 1.423
435.60 1.433
435.70 1.442
435.80 1.45
435.90 1.458
436.00 1.466
436.10 1.473
436.20 1.48
436.30 1.487
436.40 1.493
436.50 1.499
436.60 1.504
436.70 1.51
436.80 1.515
436.90 1.52
437.00 1.524
437.10 1.528
437.20 1.532
437.30 1.536
437.40 1.54
437.50 1.543
437.60 1.546
437.70 1.549
437.80 1.552
437.90 1.555
438.00 1.557
438.10 1.559
438.20 1.561
438.30 1.563
438.40 1.565
438.50 1.567
438.60 1.568
438.70 1.57
438.80 1.571
438.90 1.572
439.00 1.573
439.10 1.574
439.20 1.575
439.30 1.576
439.40 1.577
439.50 1.577
439.60 1.578
439.70 1.578
439.80 1.579
439.90 1.579
440.00 1.579
440.10 1.579
440.20 1.58
440.30 1.58
440.40 1.58
440.50 1.579
440.60 1.579
440.70 1.579
440.80 1.579
440.90 1.579
441.00 1.578
441.10 1.578
441.20 1.578
441.30 1.577
441.40 1.577
441.50 1.576
441.60 1.576
441.70 1.575
441.80 1.575
441.90 1.574
442.00 1.573
442.10 1.573
442.20 1.572
442.30 1.571
442.40 1.571
442.50 1.57
442.60 1.569
442.70 1.568
442.80 1.567
442.90 1.567
443.00 1.566
443.10 1.565
443.20 1.564
443.30 1.563
443.40 1.562
443.50 1.561
443.60 1.56
443.70 1.559
443.80 1.558
443.90 1.557
444.00 1.556
444.10 1.556
444.20 1.555
444.30 1.554
444.40 1.553
444.50 1.551
444.60 1.55
444.70 1.549
444.80 1.548
444.90 1.547
445.00 1.546
445.10 1.545
445.20 1.544
445.30 1.543
445.40 1.542
445.50 1.541
445.60 1.54
445.70 1.539
445.80 1.538
445.90 1.536
446.00 1.535
446.10 1.534
446.20 1.533
446.30 1.532
446.40 1.531
446.50 1.53
446.60 1.529
446.70 1.528
446.80 1.526
446.90 1.525
447.00 1.524
447.10 1.523
447.20 1.522
447.30 1.521
447.40 1.519
447.50 1.518
447.60 1.517
447.70 1.516
447.80 1.515
447.90 1.514
448.00 1.513
448.10 1.511
448.20 1.51
448.30 1.509
448.40 1.508
448.50 1.507
448.60 1.506
448.70 1.504
448.80 1.503
448.90 1.502
449.00 1.501
449.10 1.5
449.20 1.498
449.30 1.497
449.40 1.496
449.50 1.495
449.60 1.494
449.70 1.493
449.80 1.491
449.90 1.49
450.00 1.489
450.10 1.488
450.20 1.487
450.30 1.486
450.40 1.484
450.50 1.483
450.60 1.482
450.70 1.481
450.80 1.48
450.90 1.478
451.00 1.477
451.10 1.476
451.20 1.475
451.30 1.474
451.40 1.472
451.50 1.471
451.60 1.47
451.70 1.469
451.80 1.468
451.90 1.467
452.00 1.465
452.10 1.464
452.20 1.463
452.30 1.462
452.40 1.461
452.50 1.459
452.60 1.458
452.70 1.457
452.80 1.456
452.90 1.455
453.00 1.454
453.10 1.452
453.20 1.451
453.30 1.45
453.40 1.449
453.50 1.448
453.60 1.447
453.70 1.445
453.80 1.444
453.90 1.443
454.00 1.442
454.10 1.441
454.20 1.44
