# Version 2.1 - nm, norm@500 to 1, cut digits, bergeron_3000_85.dat_3000
# Wavelength(nm)  Flambda(ergs/cm^s/s/nm)
300.00 0.112
300.10 0.1122
300.20 0.1125
300.30 0.1128
300.40 0.113
300.50 0.1133
300.60 0.1135
300.70 0.1138
300.80 0.1141
300.90 0.1143
301.00 0.1146
301.10 0.1148
301.20 0.1151
301.30 0.1154
301.40 0.1156
301.50 0.1159
301.60 0.1161
301.70 0.1164
301.80 0.1167
301.90 0.1169
302.00 0.1172
302.10 0.1174
302.20 0.1177
302.30 0.118
302.40 0.1183
302.50 0.1185
302.60 0.1188
302.70 0.1191
302.80 0.1193
302.90 0.1196
303.00 0.1199
303.10 0.1201
303.20 0.1204
303.30 0.1207
303.40 0.1209
303.50 0.1212
303.60 0.1215
303.70 0.1217
303.80 0.122
303.90 0.1223
304.00 0.1225
304.10 0.1228
304.20 0.1231
304.30 0.1234
304.40 0.1236
304.50 0.1239
304.60 0.1242
304.70 0.1245
304.80 0.1247
304.90 0.125
305.00 0.1253
305.10 0.1256
305.20 0.1258
305.30 0.1261
305.40 0.1264
305.50 0.1266
305.60 0.1269
305.70 0.1272
305.80 0.1275
305.90 0.1277
306.00 0.128
306.10 0.1283
306.20 0.1286
306.30 0.1289
306.40 0.1291
306.50 0.1294
306.60 0.1297
306.70 0.13
306.80 0.1303
306.90 0.1306
307.00 0.1308
307.10 0.1311
307.20 0.1314
307.30 0.1317
307.40 0.132
307.50 0.1322
307.60 0.1325
307.70 0.1328
307.80 0.1331
307.90 0.1334
308.00 0.1336
308.10 0.1339
308.20 0.1342
308.30 0.1345
308.40 0.1348
308.50 0.1351
308.60 0.1354
308.70 0.1357
308.80 0.136
308.90 0.1362
309.00 0.1365
309.10 0.1368
309.20 0.1371
309.30 0.1374
309.40 0.1377
309.50 0.138
309.60 0.1382
309.70 0.1385
309.80 0.1388
309.90 0.1391
310.00 0.1394
310.10 0.1397
310.20 0.14
310.30 0.1403
310.40 0.1406
310.50 0.1409
310.60 0.1412
310.70 0.1415
310.80 0.1418
310.90 0.1421
311.00 0.1424
311.10 0.1427
311.20 0.143
311.30 0.1432
311.40 0.1435
311.50 0.1438
311.60 0.1441
311.70 0.1444
311.80 0.1447
311.90 0.145
312.00 0.1453
312.10 0.1456
312.20 0.1459
312.30 0.1462
312.40 0.1465
312.50 0.1468
312.60 0.1471
312.70 0.1474
312.80 0.1477
312.90 0.148
313.00 0.1483
313.10 0.1486
313.20 0.1489
313.30 0.1492
313.40 0.1495
313.50 0.1498
313.60 0.1501
313.70 0.1504
313.80 0.1507
313.90 0.151
314.00 0.1513
314.10 0.1516
314.20 0.1519
314.30 0.1522
314.40 0.1526
314.50 0.1529
314.60 0.1532
314.70 0.1535
314.80 0.1538
314.90 0.1541
315.00 0.1544
315.10 0.1547
315.20 0.155
315.30 0.1553
315.40 0.1556
315.50 0.156
315.60 0.1563
315.70 0.1566
315.80 0.1569
315.90 0.1572
316.00 0.1575
316.10 0.1578
316.20 0.1581
316.30 0.1584
316.40 0.1587
316.50 0.1591
316.60 0.1594
316.70 0.1597
316.80 0.16
316.90 0.1603
317.00 0.1606
317.10 0.161
317.20 0.1613
317.30 0.1616
317.40 0.1619
317.50 0.1622
317.60 0.1625
317.70 0.1628
317.80 0.1632
317.90 0.1635
318.00 0.1638
318.10 0.1641
318.20 0.1644
318.30 0.1648
318.40 0.1651
318.50 0.1654
318.60 0.1657
318.70 0.166
318.80 0.1664
318.90 0.1667
319.00 0.167
319.10 0.1673
319.20 0.1677
319.30 0.168
319.40 0.1683
319.50 0.1686
319.60 0.1689
319.70 0.1693
319.80 0.1696
319.90 0.1699
320.00 0.1702
320.10 0.1705
320.20 0.1709
320.30 0.1712
320.40 0.1715
320.50 0.1719
320.60 0.1722
320.70 0.1725
320.80 0.1729
320.90 0.1732
321.00 0.1735
321.10 0.1738
321.20 0.1742
321.30 0.1745
321.40 0.1748
321.50 0.1751
321.60 0.1755
321.70 0.1758
321.80 0.1761
321.90 0.1764
322.00 0.1768
322.10 0.1771
322.20 0.1774
322.30 0.1778
322.40 0.1781
322.50 0.1785
322.60 0.1788
322.70 0.1791
322.80 0.1795
322.90 0.1798
323.00 0.1801
323.10 0.1805
323.20 0.1808
323.30 0.1811
323.40 0.1815
323.50 0.1818
323.60 0.1821
323.70 0.1825
323.80 0.1828
323.90 0.1831
324.00 0.1835
324.10 0.1838
324.20 0.1841
324.30 0.1845
324.40 0.1848
324.50 0.1852
324.60 0.1855
324.70 0.1859
324.80 0.1862
324.90 0.1865
325.00 0.1869
325.10 0.1872
325.20 0.1876
325.30 0.1879
325.40 0.1882
325.50 0.1886
325.60 0.1889
325.70 0.1893
325.80 0.1896
325.90 0.1899
326.00 0.1903
326.10 0.1906
326.20 0.191
326.30 0.1913
326.40 0.1917
326.50 0.192
326.60 0.1924
326.70 0.1927
326.80 0.1931
326.90 0.1934
327.00 0.1938
327.10 0.1941
327.20 0.1945
327.30 0.1948
327.40 0.1951
327.50 0.1955
327.60 0.1958
327.70 0.1962
327.80 0.1965
327.90 0.1969
328.00 0.1972
328.10 0.1976
328.20 0.1979
328.30 0.1983
328.40 0.1986
328.50 0.199
328.60 0.1994
328.70 0.1997
328.80 0.2001
328.90 0.2004
329.00 0.2008
329.10 0.2011
329.20 0.2015
329.30 0.2018
329.40 0.2022
329.50 0.2025
329.60 0.2029
329.70 0.2032
329.80 0.2036
329.90 0.2039
330.00 0.2043
330.10 0.2046
330.20 0.205
330.30 0.2054
330.40 0.2057
330.50 0.2061
330.60 0.2065
330.70 0.2068
330.80 0.2072
330.90 0.2075
331.00 0.2079
331.10 0.2083
331.20 0.2086
331.30 0.209
331.40 0.2093
331.50 0.2097
331.60 0.21
331.70 0.2104
331.80 0.2108
331.90 0.2111
332.00 0.2115
332.10 0.2118
332.20 0.2122
332.30 0.2126
332.40 0.213
332.50 0.2133
332.60 0.2137
332.70 0.2141
332.80 0.2144
332.90 0.2148
333.00 0.2152
333.10 0.2155
333.20 0.2159
333.30 0.2162
333.40 0.2166
333.50 0.217
333.60 0.2173
333.70 0.2177
333.80 0.2181
333.90 0.2184
334.00 0.2188
334.10 0.2192
334.20 0.2195
334.30 0.2199
334.40 0.2203
334.50 0.2207
334.60 0.221
334.70 0.2214
334.80 0.2218
334.90 0.2222
335.00 0.2225
335.10 0.2229
335.20 0.2233
335.30 0.2236
335.40 0.224
335.50 0.2244
335.60 0.2247
335.70 0.2251
335.80 0.2255
335.90 0.2258
336.00 0.2262
336.10 0.2266
336.20 0.227
336.30 0.2274
336.40 0.2277
336.50 0.2281
336.60 0.2285
336.70 0.2289
336.80 0.2293
336.90 0.2296
337.00 0.23
337.10 0.2304
337.20 0.2308
337.30 0.2311
337.40 0.2315
337.50 0.2319
337.60 0.2323
337.70 0.2326
337.80 0.233
337.90 0.2334
338.00 0.2338
338.10 0.2341
338.20 0.2345
338.30 0.2349
338.40 0.2353
338.50 0.2357
338.60 0.2361
338.70 0.2365
338.80 0.2369
338.90 0.2372
339.00 0.2376
339.10 0.238
339.20 0.2384
339.30 0.2388
339.40 0.2391
339.50 0.2395
339.60 0.2399
339.70 0.2403
339.80 0.2407
339.90 0.241
340.00 0.2414
340.10 0.2418
340.20 0.2422
340.30 0.2426
340.40 0.243
340.50 0.2434
340.60 0.2438
340.70 0.2442
340.80 0.2446
340.90 0.245
341.00 0.2453
341.10 0.2457
341.20 0.2461
341.30 0.2465
341.40 0.2469
341.50 0.2473
341.60 0.2477
341.70 0.248
341.80 0.2484
341.90 0.2488
342.00 0.2492
342.10 0.2496
342.20 0.25
342.30 0.2504
342.40 0.2508
342.50 0.2512
342.60 0.2516
342.70 0.252
342.80 0.2524
342.90 0.2528
343.00 0.2532
343.10 0.2536
343.20 0.254
343.30 0.2544
343.40 0.2547
343.50 0.2551
343.60 0.2555
343.70 0.2559
343.80 0.2563
343.90 0.2567
344.00 0.2571
344.10 0.2575
344.20 0.2579
344.30 0.2583
344.40 0.2587
344.50 0.2591
344.60 0.2595
344.70 0.2599
344.80 0.2603
344.90 0.2607
345.00 0.2611
345.10 0.2615
345.20 0.2619
345.30 0.2623
345.40 0.2627
345.50 0.2631
345.60 0.2635
345.70 0.2639
345.80 0.2643
345.90 0.2647
346.00 0.2651
346.10 0.2655
346.20 0.2659
346.30 0.2663
346.40 0.2667
346.50 0.2671
346.60 0.2675
346.70 0.2679
346.80 0.2683
346.90 0.2688
347.00 0.2692
347.10 0.2696
347.20 0.27
347.30 0.2704
347.40 0.2708
347.50 0.2712
347.60 0.2716
347.70 0.272
347.80 0.2724
347.90 0.2728
348.00 0.2732
348.10 0.2736
348.20 0.274
348.30 0.2744
348.40 0.2748
348.50 0.2753
348.60 0.2757
348.70 0.2761
348.80 0.2765
348.90 0.2769
349.00 0.2773
349.10 0.2777
349.20 0.2781
349.30 0.2785
349.40 0.279
349.50 0.2794
349.60 0.2798
349.70 0.2802
349.80 0.2806
349.90 0.281
350.00 0.2814
350.10 0.2818
350.20 0.2822
350.30 0.2827
350.40 0.2831
350.50 0.2835
350.60 0.2839
350.70 0.2843
350.80 0.2847
350.90 0.2852
351.00 0.2856
351.10 0.286
351.20 0.2864
351.30 0.2868
351.40 0.2872
351.50 0.2876
351.60 0.2881
351.70 0.2885
351.80 0.2889
351.90 0.2893
352.00 0.2897
352.10 0.2901
352.20 0.2905
352.30 0.291
352.40 0.2914
352.50 0.2918
352.60 0.2922
352.70 0.2927
352.80 0.2931
352.90 0.2935
353.00 0.2939
353.10 0.2943
353.20 0.2948
353.30 0.2952
353.40 0.2956
353.50 0.296
353.60 0.2964
353.70 0.2969
353.80 0.2973
353.90 0.2977
354.00 0.2981
354.10 0.2985
354.20 0.299
354.30 0.2994
354.40 0.2998
354.50 0.3002
354.60 0.3007
354.70 0.3011
354.80 0.3015
354.90 0.302
355.00 0.3024
355.10 0.3028
355.20 0.3032
355.30 0.3037
355.40 0.3041
355.50 0.3045
355.60 0.3049
355.70 0.3053
355.80 0.3058
355.90 0.3062
356.00 0.3066
356.10 0.307
356.20 0.3075
356.30 0.3079
356.40 0.3083
356.50 0.3088
356.60 0.3092
356.70 0.3096
356.80 0.3101
356.90 0.3105
357.00 0.3109
357.10 0.3114
357.20 0.3118
357.30 0.3122
357.40 0.3126
357.50 0.3131
357.60 0.3135
357.70 0.3139
357.80 0.3144
357.90 0.3148
358.00 0.3152
358.10 0.3156
358.20 0.3161
358.30 0.3165
358.40 0.317
358.50 0.3174
358.60 0.3178
358.70 0.3183
358.80 0.3187
358.90 0.3191
359.00 0.3196
359.10 0.32
359.20 0.3204
359.30 0.3209
359.40 0.3213
359.50 0.3217
359.60 0.3222
359.70 0.3226
359.80 0.323
359.90 0.3235
360.00 0.3239
360.10 0.3243
360.20 0.3248
360.30 0.3252
360.40 0.3257
360.50 0.3261
360.60 0.3265
360.70 0.327
360.80 0.3274
360.90 0.3279
361.00 0.3283
361.10 0.3287
361.20 0.3292
361.30 0.3296
361.40 0.3301
361.50 0.3305
361.60 0.3309
361.70 0.3314
361.80 0.3318
361.90 0.3322
362.00 0.3327
362.10 0.3331
362.20 0.3336
362.30 0.334
362.40 0.3344
362.50 0.3349
362.60 0.3353
362.70 0.3358
362.80 0.3362
362.90 0.3366
363.00 0.3371
363.10 0.3375
363.20 0.338
363.30 0.3384
363.40 0.3389
363.50 0.3393
363.60 0.3398
363.70 0.3402
363.80 0.3407
363.90 0.3411
364.00 0.3415
364.10 0.342
364.20 0.3424
364.30 0.3429
364.40 0.3433
364.50 0.3438
364.60 0.3442
364.70 0.3447
364.80 0.3451
364.90 0.3456
365.00 0.346
365.10 0.3465
365.20 0.3469
365.30 0.3474
365.40 0.3478
365.50 0.3483
365.60 0.3487
365.70 0.3491
365.80 0.3496
365.90 0.35
366.00 0.3505
366.10 0.3509
366.20 0.3514
366.30 0.3518
366.40 0.3523
366.50 0.3528
366.60 0.3532
366.70 0.3537
366.80 0.3541
366.90 0.3546
367.00 0.355
367.10 0.3555
367.20 0.3559
367.30 0.3564
367.40 0.3568
367.50 0.3573
367.60 0.3577
367.70 0.3582
367.80 0.3586
367.90 0.3591
368.00 0.3595
368.10 0.36
368.20 0.3604
368.30 0.3609
368.40 0.3613
368.50 0.3618
368.60 0.3623
368.70 0.3627
368.80 0.3632
368.90 0.3636
369.00 0.3641
369.10 0.3645
369.20 0.365
369.30 0.3654
369.40 0.3659
369.50 0.3664
369.60 0.3668
369.70 0.3673
369.80 0.3677
369.90 0.3682
370.00 0.3686
370.10 0.3691
370.20 0.3695
370.30 0.37
370.40 0.3705
370.50 0.3709
370.60 0.3714
370.70 0.3718
370.80 0.3723
370.90 0.3728
371.00 0.3732
371.10 0.3737
371.20 0.3741
371.30 0.3746
371.40 0.3751
371.50 0.3755
371.60 0.376
371.70 0.3764
371.80 0.3769
371.90 0.3773
372.00 0.3778
372.10 0.3783
372.20 0.3787
372.30 0.3792
372.40 0.3797
372.50 0.3801
372.60 0.3806
372.70 0.3811
372.80 0.3815
372.90 0.382
373.00 0.3824
373.10 0.3829
373.20 0.3834
373.30 0.3838
373.40 0.3843
373.50 0.3847
373.60 0.3852
373.70 0.3857
373.80 0.3861
373.90 0.3866
374.00 0.387
374.10 0.3875
374.20 0.388
374.30 0.3885
374.40 0.3889
374.50 0.3894
374.60 0.3899
374.70 0.3903
374.80 0.3908
374.90 0.3913
375.00 0.3917
375.10 0.3922
375.20 0.3927
375.30 0.3931
375.40 0.3936
375.50 0.3941
375.60 0.3945
375.70 0.395
375.80 0.3954
375.90 0.3959
376.00 0.3964
376.10 0.3968
376.20 0.3973
376.30 0.3978
376.40 0.3982
376.50 0.3987
376.60 0.3992
376.70 0.3996
376.80 0.4001
376.90 0.4006
377.00 0.401
377.10 0.4015
377.20 0.402
377.30 0.4025
377.40 0.4029
377.50 0.4034
377.60 0.4039
377.70 0.4043
377.80 0.4048
377.90 0.4053
378.00 0.4058
378.10 0.4062
378.20 0.4067
378.30 0.4072
378.40 0.4076
378.50 0.4081
378.60 0.4086
378.70 0.4091
378.80 0.4095
378.90 0.41
379.00 0.4105
379.10 0.4109
379.20 0.4114
379.30 0.4119
379.40 0.4124
379.50 0.4128
379.60 0.4133
379.70 0.4138
379.80 0.4142
379.90 0.4147
380.00 0.4152
380.10 0.4157
380.20 0.4161
380.30 0.4166
380.40 0.4171
380.50 0.4176
380.60 0.418
380.70 0.4185
380.80 0.419
380.90 0.4195
381.00 0.4199
381.10 0.4204
381.20 0.4209
381.30 0.4214
381.40 0.4219
381.50 0.4223
381.60 0.4228
381.70 0.4233
381.80 0.4238
381.90 0.4242
382.00 0.4247
382.10 0.4252
382.20 0.4257
382.30 0.4261
382.40 0.4266
382.50 0.4271
382.60 0.4276
382.70 0.4281
382.80 0.4285
382.90 0.429
383.00 0.4295
383.10 0.43
383.20 0.4305
383.30 0.4309
383.40 0.4314
383.50 0.4319
383.60 0.4324
383.70 0.4328
383.80 0.4333
383.90 0.4338
384.00 0.4343
384.10 0.4348
384.20 0.4352
384.30 0.4357
384.40 0.4362
384.50 0.4367
384.60 0.4372
384.70 0.4377
384.80 0.4381
384.90 0.4386
385.00 0.4391
385.10 0.4396
385.20 0.4401
385.30 0.4405
385.40 0.441
385.50 0.4415
385.60 0.442
385.70 0.4425
385.80 0.443
385.90 0.4434
386.00 0.4439
386.10 0.4444
386.20 0.4449
386.30 0.4454
386.40 0.4458
386.50 0.4463
386.60 0.4468
386.70 0.4473
386.80 0.4478
386.90 0.4483
387.00 0.4487
387.10 0.4492
387.20 0.4497
387.30 0.4502
387.40 0.4507
387.50 0.4512
387.60 0.4517
387.70 0.4521
387.80 0.4526
387.90 0.4531
388.00 0.4536
388.10 0.4541
388.20 0.4545
388.30 0.455
388.40 0.4555
388.50 0.456
388.60 0.4565
388.70 0.457
388.80 0.4575
388.90 0.458
389.00 0.4585
389.10 0.4589
389.20 0.4594
389.30 0.4599
389.40 0.4604
389.50 0.4609
389.60 0.4614
389.70 0.4619
389.80 0.4623
389.90 0.4628
390.00 0.4633
390.10 0.4638
390.20 0.4643
390.30 0.4648
390.40 0.4653
390.50 0.4658
390.60 0.4663
390.70 0.4667
390.80 0.4672
390.90 0.4677
391.00 0.4682
391.10 0.4687
391.20 0.4692
391.30 0.4697
391.40 0.4701
391.50 0.4706
391.60 0.4711
391.70 0.4716
391.80 0.4721
391.90 0.4726
392.00 0.4731
392.10 0.4736
392.20 0.4741
392.30 0.4746
392.40 0.475
392.50 0.4755
392.60 0.476
392.70 0.4765
392.80 0.477
392.90 0.4775
393.00 0.478
393.10 0.4785
393.20 0.479
393.30 0.4795
393.40 0.48
393.50 0.4804
393.60 0.4809
393.70 0.4814
393.80 0.4819
393.90 0.4824
394.00 0.4829
394.10 0.4834
394.20 0.4839
394.30 0.4844
394.40 0.4849
394.50 0.4854
394.60 0.4859
394.70 0.4864
394.80 0.4868
394.90 0.4873
395.00 0.4878
395.10 0.4883
395.20 0.4888
395.30 0.4893
395.40 0.4898
395.50 0.4903
395.60 0.4908
395.70 0.4913
395.80 0.4918
395.90 0.4923
396.00 0.4928
396.10 0.4932
396.20 0.4938
396.30 0.4943
396.40 0.4947
396.50 0.4952
396.60 0.4957
396.70 0.4962
396.80 0.4967
396.90 0.4972
397.00 0.4977
397.10 0.4982
397.20 0.4987
397.30 0.4992
397.40 0.4997
397.50 0.5002
397.60 0.5007
397.70 0.5012
397.80 0.5017
397.90 0.5022
398.00 0.5027
398.10 0.5032
398.20 0.5036
398.30 0.5041
398.40 0.5046
398.50 0.5051
398.60 0.5056
398.70 0.5061
398.80 0.5066
398.90 0.5071
399.00 0.5076
399.10 0.5081
399.20 0.5086
399.30 0.5091
399.40 0.5096
399.50 0.5101
399.60 0.5106
399.70 0.5111
399.80 0.5116
399.90 0.5121
400.00 0.5126
400.10 0.5131
400.20 0.5136
400.30 0.5141
400.40 0.5146
400.50 0.5151
400.60 0.5156
400.70 0.5161
400.80 0.5166
400.90 0.5171
401.00 0.5176
401.10 0.5181
401.20 0.5186
401.30 0.5191
401.40 0.5196
401.50 0.5201
401.60 0.5206
401.70 0.5211
401.80 0.5216
401.90 0.5221
402.00 0.5226
402.10 0.5231
402.20 0.5236
402.30 0.5241
402.40 0.5246
402.50 0.5251
402.60 0.5256
402.70 0.5261
402.80 0.5266
402.90 0.5271
403.00 0.5276
403.10 0.5281
403.20 0.5286
403.30 0.5291
403.40 0.5296
403.50 0.5301
403.60 0.5306
403.70 0.5311
403.80 0.5316
403.90 0.5321
404.00 0.5326
404.10 0.5331
404.20 0.5336
404.30 0.5341
404.40 0.5346
404.50 0.5351
404.60 0.5356
404.70 0.5361
404.80 0.5366
404.90 0.5371
405.00 0.5376
405.10 0.5381
405.20 0.5386
405.30 0.5391
405.40 0.5396
405.50 0.5401
405.60 0.5406
405.70 0.5411
405.80 0.5416
405.90 0.5421
406.00 0.5426
406.10 0.5431
406.20 0.5436
406.30 0.5441
406.40 0.5446
406.50 0.5451
406.60 0.5456
406.70 0.5461
406.80 0.5466
406.90 0.5471
407.00 0.5476
407.10 0.5481
407.20 0.5486
407.30 0.5491
407.40 0.5496
407.50 0.5501
407.60 0.5506
407.70 0.5511
407.80 0.5516
407.90 0.5521
408.00 0.5526
408.10 0.5531
408.20 0.5536
408.30 0.5541
408.40 0.5547
408.50 0.5552
408.60 0.5557
408.70 0.5561
408.80 0.5567
408.90 0.5572
409.00 0.5577
409.10 0.5582
409.20 0.5587
409.30 0.5592
409.40 0.5597
409.50 0.5602
409.60 0.5607
409.70 0.5612
409.80 0.5617
409.90 0.5622
410.00 0.5627
410.10 0.5632
410.20 0.5637
410.30 0.5642
410.40 0.5647
410.50 0.5652
410.60 0.5657
410.70 0.5662
410.80 0.5668
410.90 0.5673
411.00 0.5678
411.10 0.5683
411.20 0.5688
411.30 0.5693
411.40 0.5698
411.50 0.5703
411.60 0.5708
411.70 0.5713
411.80 0.5718
411.90 0.5723
412.00 0.5728
412.10 0.5733
412.20 0.5738
412.30 0.5743
412.40 0.5748
412.50 0.5753
412.60 0.5758
412.70 0.5763
412.80 0.5768
412.90 0.5773
413.00 0.5778
413.10 0.5783
413.20 0.5788
413.30 0.5794
413.40 0.5799
413.50 0.5804
413.60 0.5809
413.70 0.5814
413.80 0.5819
413.90 0.5824
414.00 0.5829
414.10 0.5834
414.20 0.5839
414.30 0.5844
414.40 0.5849
414.50 0.5854
414.60 0.5859
414.70 0.5864
414.80 0.5869
414.90 0.5874
415.00 0.588
415.10 0.5885
415.20 0.589
415.30 0.5895
415.40 0.59
415.50 0.5905
415.60 0.591
415.70 0.5915
415.80 0.592
415.90 0.5925
416.00 0.593
416.10 0.5935
416.20 0.594
416.30 0.5945
416.40 0.595
416.50 0.5955
416.60 0.5961
416.70 0.5966
416.80 0.5971
416.90 0.5976
417.00 0.5981
417.10 0.5986
417.20 0.5991
417.30 0.5996
417.40 0.6001
417.50 0.6006
417.60 0.6011
417.70 0.6016
417.80 0.6021
417.90 0.6026
418.00 0.6031
418.10 0.6036
418.20 0.6041
418.30 0.6047
418.40 0.6052
418.50 0.6057
418.60 0.6062
418.70 0.6067
418.80 0.6072
418.90 0.6077
419.00 0.6082
419.10 0.6087
419.20 0.6092
419.30 0.6097
419.40 0.6102
419.50 0.6108
419.60 0.6113
419.70 0.6118
419.80 0.6123
419.90 0.6128
420.00 0.6133
420.10 0.6138
420.20 0.6143
420.30 0.6148
420.40 0.6153
420.50 0.6158
420.60 0.6163
420.70 0.6168
420.80 0.6173
420.90 0.6178
421.00 0.6183
421.10 0.6189
421.20 0.6194
421.30 0.6199
421.40 0.6204
421.50 0.6209
421.60 0.6214
421.70 0.6219
421.80 0.6224
421.90 0.6229
422.00 0.6234
422.10 0.6239
422.20 0.6244
422.30 0.6249
422.40 0.6254
422.50 0.626
422.60 0.6265
422.70 0.627
422.80 0.6275
422.90 0.628
423.00 0.6285
423.10 0.629
423.20 0.6295
423.30 0.63
423.40 0.6305
423.50 0.631
423.60 0.6315
423.70 0.6321
423.80 0.6326
423.90 0.6331
424.00 0.6336
424.10 0.6341
424.20 0.6346
424.30 0.6351
424.40 0.6356
424.50 0.6361
424.60 0.6366
424.70 0.6371
424.80 0.6376
424.90 0.6381
425.00 0.6386
425.10 0.6392
425.20 0.6396
425.30 0.6402
425.40 0.6407
425.50 0.6412
425.60 0.6417
425.70 0.6422
425.80 0.6427
425.90 0.6432
426.00 0.6437
426.10 0.6442
426.20 0.6447
426.30 0.6452
426.40 0.6457
426.50 0.6462
426.60 0.6467
426.70 0.6473
426.80 0.6478
426.90 0.6483
427.00 0.6488
427.10 0.6493
427.20 0.6498
427.30 0.6503
427.40 0.6508
427.50 0.6513
427.60 0.6518
427.70 0.6523
427.80 0.6528
427.90 0.6533
428.00 0.6539
428.10 0.6544
428.20 0.6549
428.30 0.6554
428.40 0.6559
428.50 0.6564
428.60 0.6569
428.70 0.6574
428.80 0.6579
428.90 0.6584
429.00 0.6589
429.10 0.6594
429.20 0.66
429.30 0.6605
429.40 0.661
429.50 0.6615
429.60 0.662
429.70 0.6625
429.80 0.663
429.90 0.6635
430.00 0.664
430.10 0.6645
430.20 0.665
430.30 0.6655
430.40 0.666
430.50 0.6665
430.60 0.6671
430.70 0.6676
430.80 0.6681
430.90 0.6686
431.00 0.6691
431.10 0.6696
431.20 0.6701
431.30 0.6706
431.40 0.6711
431.50 0.6716
431.60 0.6721
431.70 0.6726
431.80 0.6731
431.90 0.6736
432.00 0.6741
432.10 0.6746
432.20 0.6751
432.30 0.6757
432.40 0.6762
432.50 0.6767
432.60 0.6772
432.70 0.6777
432.80 0.6782
432.90 0.6787
433.00 0.6792
433.10 0.6797
433.20 0.6802
433.30 0.6807
433.40 0.6812
433.50 0.6817
433.60 0.6822
433.70 0.6828
433.80 0.6833
433.90 0.6837
434.00 0.6843
434.10 0.6848
434.20 0.6853
434.30 0.6858
434.40 0.6863
434.50 0.6868
434.60 0.6873
434.70 0.6878
434.80 0.6883
434.90 0.6888
435.00 0.6893
435.10 0.6898
435.20 0.6903
435.30 0.6909
435.40 0.6914
435.50 0.6919
435.60 0.6924
435.70 0.6929
435.80 0.6934
435.90 0.6939
436.00 0.6944
436.10 0.6949
436.20 0.6954
436.30 0.6959
436.40 0.6964
436.50 0.6969
436.60 0.6974
436.70 0.6979
436.80 0.6984
436.90 0.6989
437.00 0.6994
437.10 0.6999
437.20 0.7005
437.30 0.701
437.40 0.7015
437.50 0.702
437.60 0.7025
437.70 0.703
437.80 0.7035
437.90 0.704
438.00 0.7045
438.10 0.705
438.20 0.7055
438.30 0.706
438.40 0.7065
438.50 0.707
438.60 0.7075
438.70 0.708
438.80 0.7085
438.90 0.709
439.00 0.7095
439.10 0.71
439.20 0.7105
439.30 0.7111
439.40 0.7116
439.50 0.7121
439.60 0.7126
439.70 0.7131
439.80 0.7136
439.90 0.7141
440.00 0.7146
440.10 0.7151
440.20 0.7156
440.30 0.7161
440.40 0.7166
440.50 0.7171
440.60 0.7176
440.70 0.7181
440.80 0.7186
440.90 0.7191
441.00 0.7196
441.10 0.7201
441.20 0.7206
441.30 0.7211
441.40 0.7216
441.50 0.7221
441.60 0.7226
441.70 0.7231
441.80 0.7236
441.90 0.7241
442.00 0.7246
442.10 0.7251
442.20 0.7256
442.30 0.7261
442.40 0.7266
442.50 0.7271
442.60 0.7276
442.70 0.7282
442.80 0.7287
442.90 0.7292
