# Version 2.1 - nm, norm@500 to 1, cut digits, bergeron_6500_80.dat_6500
# Wavelength(nm)  Flambda(ergs/cm^s/s/nm)
300.00 0.8859
300.10 0.8863
300.20 0.8867
300.30 0.8871
300.40 0.8875
300.50 0.888
300.60 0.8884
300.70 0.8888
300.80 0.8892
300.90 0.8896
301.00 0.89
301.10 0.8904
301.20 0.8909
301.30 0.8913
301.40 0.8917
301.50 0.8921
301.60 0.8925
301.70 0.8929
301.80 0.8933
301.90 0.8937
302.00 0.8941
302.10 0.8945
302.20 0.8949
302.30 0.8953
302.40 0.8957
302.50 0.8962
302.60 0.8966
302.70 0.897
302.80 0.8974
302.90 0.8978
303.00 0.8982
303.10 0.8986
303.20 0.899
303.30 0.8994
303.40 0.8998
303.50 0.9002
303.60 0.9006
303.70 0.901
303.80 0.9014
303.90 0.9018
304.00 0.9022
304.10 0.9026
304.20 0.903
304.30 0.9034
304.40 0.9038
304.50 0.9041
304.60 0.9045
304.70 0.9049
304.80 0.9053
304.90 0.9057
305.00 0.9061
305.10 0.9065
305.20 0.9069
305.30 0.9073
305.40 0.9077
305.50 0.9081
305.60 0.9085
305.70 0.9089
305.80 0.9093
305.90 0.9096
306.00 0.91
306.10 0.9104
306.20 0.9108
306.30 0.9112
306.40 0.9116
306.50 0.912
306.60 0.9123
306.70 0.9127
306.80 0.9131
306.90 0.9135
307.00 0.9139
307.10 0.9143
307.20 0.9146
307.30 0.915
307.40 0.9154
307.50 0.9158
307.60 0.9162
307.70 0.9165
307.80 0.9169
307.90 0.9173
308.00 0.9177
308.10 0.9181
308.20 0.9184
308.30 0.9188
308.40 0.9192
308.50 0.9196
308.60 0.9199
308.70 0.9203
308.80 0.9207
308.90 0.9211
309.00 0.9214
309.10 0.9218
309.20 0.9222
309.30 0.9226
309.40 0.9229
309.50 0.9233
309.60 0.9237
309.70 0.924
309.80 0.9244
309.90 0.9248
310.00 0.9251
310.10 0.9255
310.20 0.9259
310.30 0.9262
310.40 0.9266
310.50 0.927
310.60 0.9273
310.70 0.9277
310.80 0.9281
310.90 0.9284
311.00 0.9288
311.10 0.9292
311.20 0.9295
311.30 0.9299
311.40 0.9303
311.50 0.9306
311.60 0.931
311.70 0.9313
311.80 0.9317
311.90 0.9321
312.00 0.9324
312.10 0.9328
312.20 0.9331
312.30 0.9335
312.40 0.9338
312.50 0.9342
312.60 0.9345
312.70 0.9349
312.80 0.9352
312.90 0.9356
313.00 0.936
313.10 0.9363
313.20 0.9367
313.30 0.937
313.40 0.9374
313.50 0.9377
313.60 0.9381
313.70 0.9384
313.80 0.9388
313.90 0.9391
314.00 0.9395
314.10 0.9398
314.20 0.9402
314.30 0.9405
314.40 0.9409
314.50 0.9412
314.60 0.9415
314.70 0.9419
314.80 0.9422
314.90 0.9426
315.00 0.9429
315.10 0.9433
315.20 0.9436
315.30 0.944
315.40 0.9443
315.50 0.9446
315.60 0.945
315.70 0.9453
315.80 0.9457
315.90 0.946
316.00 0.9463
316.10 0.9467
316.20 0.947
316.30 0.9473
316.40 0.9477
316.50 0.948
316.60 0.9484
316.70 0.9487
316.80 0.949
316.90 0.9494
317.00 0.9497
317.10 0.95
317.20 0.9504
317.30 0.9507
317.40 0.951
317.50 0.9514
317.60 0.9517
317.70 0.952
317.80 0.9524
317.90 0.9527
318.00 0.953
318.10 0.9533
318.20 0.9537
318.30 0.954
318.40 0.9543
318.50 0.9547
318.60 0.955
318.70 0.9553
318.80 0.9556
318.90 0.956
319.00 0.9563
319.10 0.9566
319.20 0.9569
319.30 0.9572
319.40 0.9576
319.50 0.9579
319.60 0.9582
319.70 0.9585
319.80 0.9588
319.90 0.9592
320.00 0.9595
320.10 0.9598
320.20 0.9601
320.30 0.9604
320.40 0.9608
320.50 0.9611
320.60 0.9614
320.70 0.9617
320.80 0.962
320.90 0.9623
321.00 0.9627
321.10 0.963
321.20 0.9633
321.30 0.9636
321.40 0.9639
321.50 0.9642
321.60 0.9645
321.70 0.9648
321.80 0.9651
321.90 0.9655
322.00 0.9658
322.10 0.9661
322.20 0.9664
322.30 0.9667
322.40 0.967
322.50 0.9673
322.60 0.9676
322.70 0.9679
322.80 0.9682
322.90 0.9685
323.00 0.9688
323.10 0.9691
323.20 0.9694
323.30 0.9697
323.40 0.9701
323.50 0.9704
323.60 0.9707
323.70 0.971
323.80 0.9713
323.90 0.9716
324.00 0.9719
324.10 0.9722
324.20 0.9725
324.30 0.9728
324.40 0.973
324.50 0.9733
324.60 0.9736
324.70 0.9739
324.80 0.9742
324.90 0.9745
325.00 0.9748
325.10 0.9751
325.20 0.9754
325.30 0.9757
325.40 0.976
325.50 0.9763
325.60 0.9766
325.70 0.9769
325.80 0.9772
325.90 0.9775
326.00 0.9777
326.10 0.978
326.20 0.9783
326.30 0.9786
326.40 0.9789
326.50 0.9792
326.60 0.9795
326.70 0.9798
326.80 0.98
326.90 0.9803
327.00 0.9806
327.10 0.9809
327.20 0.9812
327.30 0.9815
327.40 0.9818
327.50 0.982
327.60 0.9823
327.70 0.9826
327.80 0.9829
327.90 0.9832
328.00 0.9834
328.10 0.9837
328.20 0.984
328.30 0.9843
328.40 0.9846
328.50 0.9848
328.60 0.9851
328.70 0.9854
328.80 0.9857
328.90 0.986
329.00 0.9862
329.10 0.9865
329.20 0.9868
329.30 0.9871
329.40 0.9873
329.50 0.9876
329.60 0.9879
329.70 0.9882
329.80 0.9884
329.90 0.9887
330.00 0.989
330.10 0.9892
330.20 0.9895
330.30 0.9898
330.40 0.9901
330.50 0.9903
330.60 0.9906
330.70 0.9909
330.80 0.9911
330.90 0.9914
331.00 0.9917
331.10 0.9919
331.20 0.9922
331.30 0.9925
331.40 0.9927
331.50 0.993
331.60 0.9932
331.70 0.9935
331.80 0.9938
331.90 0.994
332.00 0.9943
332.10 0.9946
332.20 0.9948
332.30 0.9951
332.40 0.9953
332.50 0.9956
332.60 0.9959
332.70 0.9961
332.80 0.9964
332.90 0.9966
333.00 0.9969
333.10 0.9972
333.20 0.9974
333.30 0.9977
333.40 0.9979
333.50 0.9982
333.60 0.9984
333.70 0.9987
333.80 0.9989
333.90 0.9992
334.00 0.9994
334.10 0.9997
334.20 1
334.30 1
334.40 1
334.50 1.001
334.60 1.001
334.70 1.001
334.80 1.001
334.90 1.002
335.00 1.002
335.10 1.002
335.20 1.002
335.30 1.003
335.40 1.003
335.50 1.003
335.60 1.003
335.70 1.004
335.80 1.004
335.90 1.004
336.00 1.004
336.10 1.005
336.20 1.005
336.30 1.005
336.40 1.005
336.50 1.006
336.60 1.006
336.70 1.006
336.80 1.006
336.90 1.007
337.00 1.007
337.10 1.007
337.20 1.007
337.30 1.008
337.40 1.008
337.50 1.008
337.60 1.008
337.70 1.008
337.80 1.009
337.90 1.009
338.00 1.009
338.10 1.009
338.20 1.01
338.30 1.01
338.40 1.01
338.50 1.01
338.60 1.011
338.70 1.011
338.80 1.011
338.90 1.011
339.00 1.011
339.10 1.012
339.20 1.012
339.30 1.012
339.40 1.012
339.50 1.013
339.60 1.013
339.70 1.013
339.80 1.013
339.90 1.014
340.00 1.014
340.10 1.014
340.20 1.014
340.30 1.014
340.40 1.015
340.50 1.015
340.60 1.015
340.70 1.015
340.80 1.016
340.90 1.016
341.00 1.016
341.10 1.016
341.20 1.016
341.30 1.017
341.40 1.017
341.50 1.017
341.60 1.017
341.70 1.018
341.80 1.018
341.90 1.018
342.00 1.018
342.10 1.018
342.20 1.019
342.30 1.019
342.40 1.019
342.50 1.019
342.60 1.019
342.70 1.02
342.80 1.02
342.90 1.02
343.00 1.02
343.10 1.021
343.20 1.021
343.30 1.021
343.40 1.021
343.50 1.021
343.60 1.022
343.70 1.022
343.80 1.022
343.90 1.022
344.00 1.022
344.10 1.023
344.20 1.023
344.30 1.023
344.40 1.023
344.50 1.023
344.60 1.024
344.70 1.024
344.80 1.024
344.90 1.024
345.00 1.024
345.10 1.025
345.20 1.025
345.30 1.025
345.40 1.025
345.50 1.025
345.60 1.026
345.70 1.026
345.80 1.026
345.90 1.026
346.00 1.026
346.10 1.027
346.20 1.027
346.30 1.027
346.40 1.027
346.50 1.027
346.60 1.028
346.70 1.028
346.80 1.028
346.90 1.028
347.00 1.028
347.10 1.029
347.20 1.029
347.30 1.029
347.40 1.029
347.50 1.029
347.60 1.03
347.70 1.03
347.80 1.03
347.90 1.03
348.00 1.03
348.10 1.031
348.20 1.031
348.30 1.031
348.40 1.031
348.50 1.031
348.60 1.031
348.70 1.032
348.80 1.032
348.90 1.032
349.00 1.032
349.10 1.032
349.20 1.033
349.30 1.033
349.40 1.033
349.50 1.033
349.60 1.033
349.70 1.034
349.80 1.034
349.90 1.034
350.00 1.034
350.10 1.034
350.20 1.034
350.30 1.035
350.40 1.035
350.50 1.035
350.60 1.035
350.70 1.035
350.80 1.036
350.90 1.036
351.00 1.036
351.10 1.036
351.20 1.036
351.30 1.036
351.40 1.037
351.50 1.037
351.60 1.037
351.70 1.037
351.80 1.037
351.90 1.037
352.00 1.038
352.10 1.038
352.20 1.038
352.30 1.038
352.40 1.038
352.50 1.038
352.60 1.039
352.70 1.039
352.80 1.039
352.90 1.039
353.00 1.039
353.10 1.039
353.20 1.04
353.30 1.04
353.40 1.04
353.50 1.04
353.60 1.04
353.70 1.04
353.80 1.041
353.90 1.041
354.00 1.041
354.10 1.041
354.20 1.041
354.30 1.041
354.40 1.042
354.50 1.042
354.60 1.042
354.70 1.042
354.80 1.042
354.90 1.042
355.00 1.043
355.10 1.043
355.20 1.043
355.30 1.043
355.40 1.043
355.50 1.043
355.60 1.044
355.70 1.044
355.80 1.044
355.90 1.044
356.00 1.044
356.10 1.044
356.20 1.045
356.30 1.045
356.40 1.045
356.50 1.045
356.60 1.045
356.70 1.045
356.80 1.045
356.90 1.046
357.00 1.046
357.10 1.046
357.20 1.046
357.30 1.046
357.40 1.046
357.50 1.047
357.60 1.047
357.70 1.047
357.80 1.047
357.90 1.047
358.00 1.047
358.10 1.047
358.20 1.048
358.30 1.048
358.40 1.048
358.50 1.048
358.60 1.048
358.70 1.048
358.80 1.048
358.90 1.049
359.00 1.049
359.10 1.049
359.20 1.049
359.30 1.049
359.40 1.049
359.50 1.049
359.60 1.05
359.70 1.05
359.80 1.05
359.90 1.05
360.00 1.05
360.10 1.05
360.20 1.05
360.30 1.051
360.40 1.051
360.50 1.051
360.60 1.051
360.70 1.051
360.80 1.051
360.90 1.051
361.00 1.052
361.10 1.052
361.20 1.052
361.30 1.052
361.40 1.052
361.50 1.052
361.60 1.052
361.70 1.052
361.80 1.053
361.90 1.053
362.00 1.053
362.10 1.053
362.20 1.053
362.30 1.053
362.40 1.053
362.50 1.054
362.60 1.054
362.70 1.054
362.80 1.054
362.90 1.054
363.00 1.054
363.10 1.054
363.20 1.054
363.30 1.055
363.40 1.055
363.50 1.055
363.60 1.055
363.70 1.055
363.80 1.055
363.90 1.055
364.00 1.055
364.10 1.056
364.20 1.056
364.30 1.056
364.40 1.056
364.50 1.056
364.60 1.056
364.70 1.056
364.80 1.056
364.90 1.056
365.00 1.057
365.10 1.057
365.20 1.057
365.30 1.057
365.40 1.057
365.50 1.057
365.60 1.057
365.70 1.057
365.80 1.058
365.90 1.058
366.00 1.058
366.10 1.058
366.20 1.058
366.30 1.058
366.40 1.058
366.50 1.058
366.60 1.058
366.70 1.059
366.80 1.059
366.90 1.059
367.00 1.059
367.10 1.059
367.20 1.059
367.30 1.059
367.40 1.059
367.50 1.059
367.60 1.06
367.70 1.06
367.80 1.06
367.90 1.06
368.00 1.06
368.10 1.06
368.20 1.06
368.30 1.06
368.40 1.06
368.50 1.061
368.60 1.061
368.70 1.061
368.80 1.061
368.90 1.061
369.00 1.061
369.10 1.061
369.20 1.061
369.30 1.061
369.40 1.062
369.50 1.062
369.60 1.062
369.70 1.062
369.80 1.062
369.90 1.062
370.00 1.062
370.10 1.062
370.20 1.062
370.30 1.062
370.40 1.063
370.50 1.063
370.60 1.063
370.70 1.063
370.80 1.063
370.90 1.063
371.00 1.063
371.10 1.063
371.20 1.063
371.30 1.063
371.40 1.064
371.50 1.064
371.60 1.064
371.70 1.064
371.80 1.064
371.90 1.064
372.00 1.064
372.10 1.064
372.20 1.064
372.30 1.064
372.40 1.065
372.50 1.065
372.60 1.065
372.70 1.065
372.80 1.065
372.90 1.065
373.00 1.065
373.10 1.065
373.20 1.065
373.30 1.065
373.40 1.066
373.50 1.066
373.60 1.066
373.70 1.066
373.80 1.066
373.90 1.066
374.00 1.066
374.10 1.066
374.20 1.066
374.30 1.066
374.40 1.067
374.50 1.067
374.60 1.067
374.70 1.067
374.80 1.067
374.90 1.067
375.00 1.067
375.10 1.067
375.20 1.067
375.30 1.068
375.40 1.068
375.50 1.068
375.60 1.068
375.70 1.068
375.80 1.068
375.90 1.068
376.00 1.068
376.10 1.068
376.20 1.069
376.30 1.069
376.40 1.069
376.50 1.069
376.60 1.069
376.70 1.069
376.80 1.069
376.90 1.069
377.00 1.07
377.10 1.07
377.20 1.07
377.30 1.07
377.40 1.07
377.50 1.07
377.60 1.07
377.70 1.07
377.80 1.071
377.90 1.071
378.00 1.071
378.10 1.071
378.20 1.071
378.30 1.071
378.40 1.071
378.50 1.071
378.60 1.071
378.70 1.071
378.80 1.071
378.90 1.071
379.00 1.071
379.10 1.07
379.20 1.07
379.30 1.07
379.40 1.07
379.50 1.069
379.60 1.069
379.70 1.069
379.80 1.069
379.90 1.068
380.00 1.068
380.10 1.069
380.20 1.069
380.30 1.07
380.40 1.071
380.50 1.071
380.60 1.072
380.70 1.073
380.80 1.073
380.90 1.074
381.00 1.075
381.10 1.075
381.20 1.075
381.30 1.075
381.40 1.076
381.50 1.076
381.60 1.076
381.70 1.076
381.80 1.076
381.90 1.076
382.00 1.076
382.10 1.076
382.20 1.076
382.30 1.075
382.40 1.074
382.50 1.073
382.60 1.072
382.70 1.07
382.80 1.069
382.90 1.068
383.00 1.067
383.10 1.066
383.20 1.065
383.30 1.062
383.40 1.057
383.50 1.048
383.60 1.051
383.70 1.059
383.80 1.064
383.90 1.067
384.00 1.07
384.10 1.072
384.20 1.074
384.30 1.075
384.40 1.076
384.50 1.077
384.60 1.078
384.70 1.079
384.80 1.079
384.90 1.08
385.00 1.08
385.10 1.081
385.20 1.081
385.30 1.081
385.40 1.082
385.50 1.082
385.60 1.082
385.70 1.082
385.80 1.083
385.90 1.083
386.00 1.083
386.10 1.083
386.20 1.083
386.30 1.083
386.40 1.083
386.50 1.083
386.60 1.083
386.70 1.083
386.80 1.083
386.90 1.083
387.00 1.083
387.10 1.083
387.20 1.082
387.30 1.082
387.40 1.082
387.50 1.081
387.60 1.081
387.70 1.08
387.80 1.079
387.90 1.077
388.00 1.076
388.10 1.074
388.20 1.071
388.30 1.068
388.40 1.063
388.50 1.057
388.60 1.05
388.70 1.039
388.80 1.022
388.90 0.9986
389.00 1.021
389.10 1.038
389.20 1.05
389.30 1.057
389.40 1.063
389.50 1.068
389.60 1.072
389.70 1.075
389.80 1.078
389.90 1.079
390.00 1.081
390.10 1.082
390.20 1.083
390.30 1.084
390.40 1.085
390.50 1.085
390.60 1.086
390.70 1.086
390.80 1.087
390.90 1.087
391.00 1.088
391.10 1.088
391.20 1.088
391.30 1.088
391.40 1.088
391.50 1.089
391.60 1.089
391.70 1.089
391.80 1.089
391.90 1.089
392.00 1.089
392.10 1.09
392.20 1.09
392.30 1.09
392.40 1.09
392.50 1.09
392.60 1.09
392.70 1.09
392.80 1.09
392.90 1.09
393.00 1.09
393.10 1.09
393.20 1.09
393.30 1.09
393.40 1.09
393.50 1.09
393.60 1.09
393.70 1.09
393.80 1.09
393.90 1.09
394.00 1.09
394.10 1.09
394.20 1.09
394.30 1.09
394.40 1.09
394.50 1.09
394.60 1.09
394.70 1.089
394.80 1.089
394.90 1.089
395.00 1.089
395.10 1.088
395.20 1.088
395.30 1.087
395.40 1.087
395.50 1.086
395.60 1.085
395.70 1.084
395.80 1.082
395.90 1.08
396.00 1.078
396.10 1.075
396.20 1.071
396.30 1.066
396.40 1.06
396.50 1.05
396.60 1.038
396.70 1.023
396.80 0.9997
396.90 0.9632
397.00 0.9139
397.10 0.9605
397.20 0.9962
397.30 1.021
397.40 1.037
397.50 1.049
397.60 1.059
397.70 1.066
397.80 1.071
397.90 1.076
398.00 1.079
398.10 1.081
398.20 1.083
398.30 1.085
398.40 1.086
398.50 1.087
398.60 1.088
398.70 1.089
398.80 1.089
398.90 1.09
399.00 1.09
399.10 1.091
399.20 1.091
399.30 1.092
399.40 1.092
399.50 1.092
399.60 1.092
399.70 1.092
399.80 1.093
399.90 1.093
400.00 1.093
400.10 1.093
400.20 1.093
400.30 1.093
400.40 1.093
400.50 1.094
400.60 1.094
400.70 1.094
400.80 1.094
400.90 1.094
401.00 1.094
401.10 1.094
401.20 1.094
401.30 1.094
401.40 1.094
401.50 1.094
401.60 1.094
401.70 1.094
401.80 1.094
401.90 1.094
402.00 1.094
402.10 1.094
402.20 1.094
402.30 1.094
402.40 1.095
402.50 1.095
402.60 1.095
402.70 1.095
402.80 1.095
402.90 1.095
403.00 1.095
403.10 1.095
403.20 1.095
403.30 1.095
403.40 1.095
403.50 1.095
403.60 1.095
403.70 1.095
403.80 1.095
403.90 1.095
404.00 1.095
404.10 1.095
404.20 1.095
404.30 1.095
404.40 1.095
404.50 1.095
404.60 1.095
404.70 1.095
404.80 1.095
404.90 1.095
405.00 1.095
405.10 1.095
405.20 1.095
405.30 1.094
405.40 1.094
405.50 1.094
405.60 1.094
405.70 1.094
405.80 1.094
405.90 1.094
406.00 1.094
406.10 1.094
406.20 1.094
406.30 1.094
406.40 1.094
406.50 1.094
406.60 1.094
406.70 1.094
406.80 1.094
406.90 1.093
407.00 1.093
407.10 1.093
407.20 1.093
407.30 1.093
407.40 1.093
407.50 1.092
407.60 1.092
407.70 1.092
407.80 1.091
407.90 1.091
408.00 1.091
408.10 1.09
408.20 1.089
408.30 1.089
408.40 1.088
408.50 1.087
408.60 1.086
408.70 1.085
408.80 1.083
408.90 1.081
409.00 1.079
409.10 1.076
409.20 1.072
409.30 1.067
409.40 1.061
409.50 1.052
409.60 1.041
409.70 1.024
409.80 1.001
409.90 0.972
410.00 0.921
410.10 0.8643
410.20 0.8017
410.30 0.8865
410.40 0.9495
410.50 0.9906
410.60 1.014
410.70 1.034
410.80 1.048
410.90 1.057
411.00 1.064
411.10 1.07
411.20 1.074
411.30 1.077
411.40 1.08
411.50 1.082
411.60 1.084
411.70 1.085
411.80 1.086
411.90 1.087
412.00 1.088
412.10 1.089
412.20 1.089
412.30 1.09
412.40 1.09
412.50 1.091
412.60 1.091
412.70 1.091
412.80 1.092
412.90 1.092
413.00 1.092
413.10 1.092
413.20 1.092
413.30 1.092
413.40 1.093
413.50 1.093
413.60 1.093
413.70 1.093
413.80 1.093
413.90 1.093
414.00 1.093
414.10 1.093
414.20 1.093
414.30 1.093
414.40 1.093
414.50 1.093
414.60 1.093
414.70 1.093
414.80 1.093
414.90 1.093
415.00 1.093
415.10 1.093
415.20 1.093
415.30 1.093
415.40 1.093
415.50 1.093
415.60 1.093
415.70 1.093
415.80 1.093
415.90 1.093
416.00 1.093
416.10 1.093
416.20 1.093
416.30 1.093
416.40 1.093
416.50 1.093
416.60 1.093
416.70 1.093
416.80 1.093
416.90 1.093
417.00 1.093
417.10 1.093
417.20 1.093
417.30 1.093
417.40 1.093
417.50 1.093
417.60 1.093
417.70 1.093
417.80 1.093
417.90 1.093
418.00 1.093
418.10 1.093
418.20 1.093
418.30 1.093
418.40 1.093
418.50 1.093
418.60 1.093
418.70 1.093
418.80 1.092
418.90 1.092
419.00 1.092
419.10 1.092
419.20 1.092
419.30 1.092
419.40 1.092
419.50 1.092
419.60 1.092
419.70 1.092
419.80 1.092
419.90 1.092
420.00 1.092
420.10 1.092
420.20 1.092
420.30 1.092
420.40 1.092
420.50 1.092
420.60 1.092
420.70 1.092
420.80 1.092
420.90 1.092
421.00 1.092
421.10 1.092
421.20 1.091
421.30 1.091
421.40 1.091
421.50 1.091
421.60 1.091
421.70 1.091
421.80 1.091
421.90 1.091
422.00 1.091
422.10 1.091
422.20 1.091
422.30 1.091
422.40 1.091
422.50 1.091
422.60 1.091
422.70 1.091
422.80 1.091
422.90 1.091
423.00 1.091
423.10 1.091
423.20 1.09
423.30 1.09
423.40 1.09
423.50 1.09
423.60 1.09
423.70 1.09
423.80 1.09
423.90 1.09
424.00 1.09
424.10 1.09
424.20 1.09
424.30 1.09
424.40 1.09
424.50 1.09
424.60 1.09
424.70 1.09
424.80 1.09
424.90 1.089
425.00 1.089
425.10 1.089
425.20 1.089
425.30 1.089
425.40 1.089
425.50 1.089
425.60 1.089
425.70 1.089
425.80 1.089
425.90 1.089
426.00 1.089
426.10 1.089
426.20 1.089
426.30 1.089
426.40 1.088
426.50 1.088
426.60 1.088
426.70 1.088
426.80 1.088
426.90 1.088
427.00 1.088
427.10 1.088
427.20 1.088
427.30 1.088
427.40 1.088
427.50 1.088
427.60 1.088
427.70 1.087
427.80 1.087
427.90 1.087
428.00 1.087
428.10 1.087
428.20 1.087
428.30 1.087
428.40 1.087
428.50 1.087
428.60 1.087
428.70 1.087
428.80 1.086
428.90 1.086
429.00 1.086
429.10 1.086
429.20 1.086
429.30 1.086
429.40 1.086
429.50 1.086
429.60 1.085
429.70 1.085
429.80 1.085
429.90 1.085
430.00 1.085
430.10 1.085
430.20 1.085
430.30 1.084
430.40 1.084
430.50 1.084
430.60 1.084
430.70 1.084
430.80 1.083
430.90 1.083
431.00 1.083
431.10 1.082
431.20 1.082
431.30 1.082
431.40 1.081
431.50 1.081
431.60 1.08
431.70 1.08
431.80 1.079
431.90 1.079
432.00 1.078
432.10 1.077
432.20 1.076
432.30 1.075
432.40 1.073
432.50 1.072
432.60 1.07
432.70 1.067
432.80 1.064
432.90 1.061
433.00 1.056
433.10 1.051
433.20 1.043
433.30 1.035
433.40 1.022
433.50 1.004
433.60 0.9829
433.70 0.9451
433.80 0.8909
433.90 0.8204
434.00 0.6608
434.10 0.6635
434.20 0.8284
434.30 0.8963
434.40 0.9484
434.50 0.9849
434.60 1.006
434.70 1.022
434.80 1.035
434.90 1.043
435.00 1.05
435.10 1.056
435.20 1.059
435.30 1.063
435.40 1.066
435.50 1.068
435.60 1.07
435.70 1.071
435.80 1.072
435.90 1.073
436.00 1.074
436.10 1.075
436.20 1.076
436.30 1.076
436.40 1.077
436.50 1.077
436.60 1.077
436.70 1.078
436.80 1.078
436.90 1.078
437.00 1.078
437.10 1.078
437.20 1.078
437.30 1.079
437.40 1.079
437.50 1.079
437.60 1.079
437.70 1.079
437.80 1.079
437.90 1.079
438.00 1.079
438.10 1.079
438.20 1.079
438.30 1.079
438.40 1.079
438.50 1.079
438.60 1.079
438.70 1.079
438.80 1.079
438.90 1.079
439.00 1.079
439.10 1.079
439.20 1.079
439.30 1.079
439.40 1.079
439.50 1.079
439.60 1.078
439.70 1.078
439.80 1.078
439.90 1.078
440.00 1.078
440.10 1.078
440.20 1.078
440.30 1.078
440.40 1.078
440.50 1.078
440.60 1.078
440.70 1.078
440.80 1.078
440.90 1.078
441.00 1.078
441.10 1.077
441.20 1.077
441.30 1.077
441.40 1.077
441.50 1.077
441.60 1.077
441.70 1.077
441.80 1.077
441.90 1.077
442.00 1.077
442.10 1.077
442.20 1.077
442.30 1.077
442.40 1.076
442.50 1.076
442.60 1.076
442.70 1.076
442.80 1.076
442.90 1.076
443.00 1.076
443.10 1.076
443.20 1.076
443.30 1.076
443.40 1.076
443.50 1.076
443.60 1.075
443.70 1.075
443.80 1.075
443.90 1.075
444.00 1.075
444.10 1.075
444.20 1.075
444.30 1.075
444.40 1.075
444.50 1.075
444.60 1.075
444.70 1.074
444.80 1.074
444.90 1.074
445.00 1.074
445.10 1.074
445.20 1.074
445.30 1.074
445.40 1.074
445.50 1.074
445.60 1.074
445.70 1.074
445.80 1.073
445.90 1.073
446.00 1.073
446.10 1.073
446.20 1.073
446.30 1.073
446.40 1.073
446.50 1.073
446.60 1.073
446.70 1.073
446.80 1.072
446.90 1.072
447.00 1.072
447.10 1.072
447.20 1.072
447.30 1.072
447.40 1.072
447.50 1.072
447.60 1.072
447.70 1.072
447.80 1.071
447.90 1.071
448.00 1.071
448.10 1.071
448.20 1.071
448.30 1.071
448.40 1.071
448.50 1.071
448.60 1.071
448.70 1.071
448.80 1.07
448.90 1.07
449.00 1.07
449.10 1.07
449.20 1.07
449.30 1.07
449.40 1.07
449.50 1.07
449.60 1.07
449.70 1.07
449.80 1.069
449.90 1.069
450.00 1.069
450.10 1.069
450.20 1.069
450.30 1.069
450.40 1.069
450.50 1.069
450.60 1.069
450.70 1.069
450.80 1.068
450.90 1.068
451.00 1.068
451.10 1.068
451.20 1.068
451.30 1.068
451.40 1.068
