# Version 2.1 - nm, norm@500 to 1, cut digits, bergeron_35000_70.dat_35000
# Wavelength(nm)  Flambda(ergs/cm^s/s/nm)
300.00 5.499
300.10 5.493
300.20 5.486
300.30 5.48
300.40 5.473
300.50 5.467
300.60 5.461
300.70 5.454
300.80 5.448
300.90 5.442
301.00 5.436
301.10 5.429
301.20 5.423
301.30 5.417
301.40 5.41
301.50 5.404
301.60 5.398
301.70 5.392
301.80 5.385
301.90 5.379
302.00 5.373
302.10 5.367
302.20 5.361
302.30 5.354
302.40 5.348
302.50 5.342
302.60 5.336
302.70 5.33
302.80 5.324
302.90 5.318
303.00 5.311
303.10 5.305
303.20 5.299
303.30 5.293
303.40 5.287
303.50 5.281
303.60 5.275
303.70 5.269
303.80 5.263
303.90 5.257
304.00 5.251
304.10 5.245
304.20 5.239
304.30 5.233
304.40 5.227
304.50 5.221
304.60 5.215
304.70 5.209
304.80 5.203
304.90 5.197
305.00 5.191
305.10 5.185
305.20 5.179
305.30 5.173
305.40 5.167
305.50 5.161
305.60 5.155
305.70 5.15
305.80 5.144
305.90 5.138
306.00 5.132
306.10 5.126
306.20 5.12
306.30 5.114
306.40 5.109
306.50 5.103
306.60 5.097
306.70 5.091
306.80 5.085
306.90 5.08
307.00 5.074
307.10 5.068
307.20 5.062
307.30 5.057
307.40 5.051
307.50 5.045
307.60 5.039
307.70 5.034
307.80 5.028
307.90 5.022
308.00 5.016
308.10 5.011
308.20 5.005
308.30 4.999
308.40 4.994
308.50 4.988
308.60 4.982
308.70 4.977
308.80 4.971
308.90 4.966
309.00 4.96
309.10 4.954
309.20 4.949
309.30 4.943
309.40 4.938
309.50 4.932
309.60 4.926
309.70 4.921
309.80 4.915
309.90 4.91
310.00 4.904
310.10 4.899
310.20 4.893
310.30 4.888
310.40 4.882
310.50 4.877
310.60 4.871
310.70 4.866
310.80 4.86
310.90 4.855
311.00 4.849
311.10 4.844
311.20 4.838
311.30 4.833
311.40 4.828
311.50 4.822
311.60 4.817
311.70 4.811
311.80 4.806
311.90 4.801
312.00 4.795
312.10 4.79
312.20 4.785
312.30 4.779
312.40 4.774
312.50 4.768
312.60 4.763
312.70 4.758
312.80 4.752
312.90 4.747
313.00 4.742
313.10 4.737
313.20 4.731
313.30 4.726
313.40 4.721
313.50 4.715
313.60 4.71
313.70 4.705
313.80 4.7
313.90 4.694
314.00 4.689
314.10 4.684
314.20 4.679
314.30 4.674
314.40 4.668
314.50 4.663
314.60 4.658
314.70 4.653
314.80 4.648
314.90 4.642
315.00 4.637
315.10 4.632
315.20 4.627
315.30 4.622
315.40 4.617
315.50 4.612
315.60 4.607
315.70 4.601
315.80 4.596
315.90 4.591
316.00 4.586
316.10 4.581
316.20 4.576
316.30 4.571
316.40 4.566
316.50 4.561
316.60 4.556
316.70 4.551
316.80 4.546
316.90 4.541
317.00 4.536
317.10 4.531
317.20 4.526
317.30 4.521
317.40 4.516
317.50 4.511
317.60 4.506
317.70 4.501
317.80 4.496
317.90 4.491
318.00 4.486
318.10 4.481
318.20 4.476
318.30 4.471
318.40 4.466
318.50 4.461
318.60 4.456
318.70 4.451
318.80 4.447
318.90 4.442
319.00 4.437
319.10 4.432
319.20 4.427
319.30 4.422
319.40 4.417
319.50 4.412
319.60 4.408
319.70 4.403
319.80 4.398
319.90 4.393
320.00 4.388
320.10 4.384
320.20 4.379
320.30 4.374
320.40 4.369
320.50 4.364
320.60 4.36
320.70 4.355
320.80 4.35
320.90 4.345
321.00 4.341
321.10 4.336
321.20 4.331
321.30 4.326
321.40 4.322
321.50 4.317
321.60 4.312
321.70 4.308
321.80 4.303
321.90 4.298
322.00 4.293
322.10 4.289
322.20 4.284
322.30 4.279
322.40 4.275
322.50 4.27
322.60 4.266
322.70 4.261
322.80 4.256
322.90 4.252
323.00 4.247
323.10 4.242
323.20 4.238
323.30 4.233
323.40 4.229
323.50 4.224
323.60 4.219
323.70 4.215
323.80 4.21
323.90 4.206
324.00 4.201
324.10 4.197
324.20 4.192
324.30 4.188
324.40 4.183
324.50 4.178
324.60 4.174
324.70 4.169
324.80 4.165
324.90 4.16
325.00 4.156
325.10 4.151
325.20 4.147
325.30 4.143
325.40 4.138
325.50 4.134
325.60 4.129
325.70 4.125
325.80 4.12
325.90 4.116
326.00 4.111
326.10 4.107
326.20 4.103
326.30 4.098
326.40 4.094
326.50 4.089
326.60 4.085
326.70 4.081
326.80 4.076
326.90 4.072
327.00 4.067
327.10 4.063
327.20 4.059
327.30 4.054
327.40 4.05
327.50 4.046
327.60 4.041
327.70 4.037
327.80 4.033
327.90 4.028
328.00 4.024
328.10 4.02
328.20 4.015
328.30 4.011
328.40 4.007
328.50 4.002
328.60 3.998
328.70 3.994
328.80 3.99
328.90 3.985
329.00 3.981
329.10 3.977
329.20 3.973
329.30 3.968
329.40 3.964
329.50 3.96
329.60 3.956
329.70 3.952
329.80 3.947
329.90 3.943
330.00 3.939
330.10 3.935
330.20 3.931
330.30 3.926
330.40 3.922
330.50 3.918
330.60 3.914
330.70 3.91
330.80 3.906
330.90 3.901
331.00 3.897
331.10 3.893
331.20 3.889
331.30 3.885
331.40 3.881
331.50 3.877
331.60 3.872
331.70 3.868
331.80 3.864
331.90 3.86
332.00 3.856
332.10 3.852
332.20 3.848
332.30 3.844
332.40 3.84
332.50 3.836
332.60 3.832
332.70 3.828
332.80 3.824
332.90 3.82
333.00 3.815
333.10 3.811
333.20 3.807
333.30 3.803
333.40 3.799
333.50 3.795
333.60 3.791
333.70 3.787
333.80 3.783
333.90 3.779
334.00 3.775
334.10 3.771
334.20 3.767
334.30 3.763
334.40 3.76
334.50 3.756
334.60 3.752
334.70 3.748
334.80 3.744
334.90 3.74
335.00 3.736
335.10 3.732
335.20 3.728
335.30 3.724
335.40 3.72
335.50 3.716
335.60 3.712
335.70 3.709
335.80 3.705
335.90 3.701
336.00 3.697
336.10 3.693
336.20 3.689
336.30 3.685
336.40 3.681
336.50 3.678
336.60 3.674
336.70 3.67
336.80 3.666
336.90 3.662
337.00 3.658
337.10 3.655
337.20 3.651
337.30 3.647
337.40 3.643
337.50 3.639
337.60 3.636
337.70 3.632
337.80 3.628
337.90 3.624
338.00 3.62
338.10 3.617
338.20 3.613
338.30 3.609
338.40 3.605
338.50 3.602
338.60 3.598
338.70 3.594
338.80 3.59
338.90 3.587
339.00 3.583
339.10 3.579
339.20 3.575
339.30 3.572
339.40 3.568
339.50 3.564
339.60 3.561
339.70 3.557
339.80 3.553
339.90 3.55
340.00 3.546
340.10 3.542
340.20 3.538
340.30 3.535
340.40 3.531
340.50 3.528
340.60 3.524
340.70 3.52
340.80 3.517
340.90 3.513
341.00 3.509
341.10 3.506
341.20 3.502
341.30 3.498
341.40 3.495
341.50 3.491
341.60 3.488
341.70 3.484
341.80 3.48
341.90 3.477
342.00 3.473
342.10 3.47
342.20 3.466
342.30 3.462
342.40 3.459
342.50 3.455
342.60 3.452
342.70 3.448
342.80 3.445
342.90 3.441
343.00 3.438
343.10 3.434
343.20 3.431
343.30 3.427
343.40 3.424
343.50 3.42
343.60 3.416
343.70 3.413
343.80 3.409
343.90 3.406
344.00 3.402
344.10 3.399
344.20 3.395
344.30 3.392
344.40 3.389
344.50 3.385
344.60 3.382
344.70 3.378
344.80 3.375
344.90 3.371
345.00 3.368
345.10 3.364
345.20 3.361
345.30 3.357
345.40 3.354
345.50 3.351
345.60 3.347
345.70 3.344
345.80 3.34
345.90 3.337
346.00 3.334
346.10 3.33
346.20 3.327
346.30 3.323
346.40 3.32
346.50 3.317
346.60 3.313
346.70 3.31
346.80 3.306
346.90 3.303
347.00 3.3
347.10 3.296
347.20 3.293
347.30 3.29
347.40 3.286
347.50 3.283
347.60 3.28
347.70 3.276
347.80 3.273
347.90 3.27
348.00 3.266
348.10 3.263
348.20 3.26
348.30 3.256
348.40 3.253
348.50 3.25
348.60 3.247
348.70 3.243
348.80 3.24
348.90 3.237
349.00 3.233
349.10 3.23
349.20 3.227
349.30 3.224
349.40 3.22
349.50 3.217
349.60 3.214
349.70 3.211
349.80 3.207
349.90 3.204
350.00 3.201
350.10 3.198
350.20 3.194
350.30 3.191
350.40 3.188
350.50 3.185
350.60 3.182
350.70 3.178
350.80 3.175
350.90 3.172
351.00 3.169
351.10 3.166
351.20 3.162
351.30 3.159
351.40 3.156
351.50 3.153
351.60 3.15
351.70 3.146
351.80 3.143
351.90 3.14
352.00 3.137
352.10 3.134
352.20 3.131
352.30 3.128
352.40 3.124
352.50 3.121
352.60 3.118
352.70 3.115
352.80 3.112
352.90 3.109
353.00 3.106
353.10 3.103
353.20 3.099
353.30 3.096
353.40 3.093
353.50 3.09
353.60 3.087
353.70 3.084
353.80 3.081
353.90 3.078
354.00 3.075
354.10 3.072
354.20 3.069
354.30 3.066
354.40 3.062
354.50 3.059
354.60 3.056
354.70 3.053
354.80 3.05
354.90 3.047
355.00 3.044
355.10 3.041
355.20 3.038
355.30 3.035
355.40 3.032
355.50 3.029
355.60 3.026
355.70 3.023
355.80 3.02
355.90 3.017
356.00 3.014
356.10 3.011
356.20 3.008
356.30 3.005
356.40 3.002
356.50 2.999
356.60 2.996
356.70 2.993
356.80 2.99
356.90 2.987
357.00 2.984
357.10 2.981
357.20 2.978
357.30 2.975
357.40 2.972
357.50 2.969
357.60 2.967
357.70 2.964
357.80 2.961
357.90 2.958
358.00 2.955
358.10 2.952
358.20 2.949
358.30 2.946
358.40 2.943
358.50 2.94
358.60 2.937
358.70 2.934
358.80 2.932
358.90 2.929
359.00 2.926
359.10 2.923
359.20 2.92
359.30 2.917
359.40 2.914
359.50 2.911
359.60 2.908
359.70 2.906
359.80 2.903
359.90 2.9
360.00 2.897
360.10 2.894
360.20 2.891
360.30 2.888
360.40 2.886
360.50 2.883
360.60 2.88
360.70 2.877
360.80 2.874
360.90 2.871
361.00 2.869
361.10 2.866
361.20 2.863
361.30 2.86
361.40 2.857
361.50 2.855
361.60 2.852
361.70 2.849
361.80 2.846
361.90 2.843
362.00 2.841
362.10 2.838
362.20 2.835
362.30 2.832
362.40 2.83
362.50 2.827
362.60 2.824
362.70 2.821
362.80 2.818
362.90 2.816
363.00 2.813
363.10 2.81
363.20 2.807
363.30 2.805
363.40 2.802
363.50 2.799
363.60 2.797
363.70 2.794
363.80 2.791
363.90 2.788
364.00 2.786
364.10 2.783
364.20 2.78
364.30 2.778
364.40 2.775
364.50 2.772
364.60 2.769
364.70 2.767
364.80 2.764
364.90 2.761
365.00 2.759
365.10 2.756
365.20 2.753
365.30 2.751
365.40 2.748
365.50 2.745
365.60 2.743
365.70 2.74
365.80 2.737
365.90 2.735
366.00 2.732
366.10 2.729
366.20 2.726
366.30 2.723
366.40 2.72
366.50 2.718
366.60 2.715
366.70 2.712
366.80 2.709
366.90 2.706
367.00 2.703
367.10 2.7
367.20 2.698
367.30 2.695
367.40 2.692
367.50 2.689
367.60 2.686
367.70 2.683
367.80 2.681
367.90 2.678
368.00 2.675
368.10 2.672
368.20 2.669
368.30 2.667
368.40 2.664
368.50 2.661
368.60 2.658
368.70 2.655
368.80 2.653
368.90 2.65
369.00 2.647
369.10 2.644
369.20 2.642
369.30 2.639
369.40 2.636
369.50 2.633
369.60 2.631
369.70 2.628
369.80 2.625
369.90 2.623
370.00 2.62
370.10 2.617
370.20 2.615
370.30 2.612
370.40 2.609
370.50 2.607
370.60 2.604
370.70 2.601
370.80 2.599
370.90 2.596
371.00 2.594
371.10 2.591
371.20 2.588
371.30 2.586
371.40 2.583
371.50 2.581
371.60 2.578
371.70 2.575
371.80 2.573
371.90 2.57
372.00 2.568
372.10 2.565
372.20 2.563
372.30 2.561
372.40 2.558
372.50 2.556
372.60 2.554
372.70 2.552
372.80 2.549
372.90 2.547
373.00 2.545
373.10 2.543
373.20 2.54
373.30 2.538
373.40 2.536
373.50 2.534
373.60 2.531
373.70 2.529
373.80 2.527
373.90 2.525
374.00 2.522
374.10 2.52
374.20 2.518
374.30 2.516
374.40 2.515
374.50 2.513
374.60 2.511
374.70 2.509
374.80 2.507
374.90 2.505
375.00 2.503
375.10 2.501
375.20 2.499
375.30 2.497
375.40 2.495
375.50 2.493
375.60 2.491
375.70 2.489
375.80 2.487
375.90 2.485
376.00 2.483
376.10 2.48
376.20 2.478
376.30 2.475
376.40 2.472
376.50 2.469
376.60 2.466
376.70 2.463
376.80 2.46
376.90 2.457
377.00 2.455
377.10 2.454
377.20 2.454
377.30 2.453
377.40 2.453
377.50 2.453
377.60 2.452
377.70 2.452
377.80 2.451
377.90 2.451
378.00 2.451
378.10 2.447
378.20 2.444
378.30 2.441
378.40 2.438
378.50 2.435
378.60 2.432
378.70 2.429
378.80 2.426
378.90 2.423
379.00 2.42
379.10 2.416
379.20 2.412
379.30 2.409
379.40 2.405
379.50 2.401
379.60 2.397
379.70 2.394
379.80 2.39
379.90 2.386
380.00 2.383
380.10 2.385
380.20 2.388
380.30 2.39
380.40 2.393
380.50 2.395
380.60 2.397
380.70 2.4
380.80 2.402
380.90 2.405
381.00 2.407
381.10 2.406
381.20 2.405
381.30 2.404
381.40 2.403
381.50 2.402
381.60 2.399
381.70 2.396
381.80 2.392
381.90 2.387
382.00 2.382
382.10 2.376
382.20 2.369
382.30 2.358
382.40 2.348
382.50 2.338
382.60 2.327
382.70 2.317
382.80 2.307
382.90 2.297
383.00 2.286
383.10 2.276
383.20 2.266
383.30 2.253
383.40 2.242
383.50 2.233
383.60 2.233
383.70 2.241
383.80 2.25
383.90 2.26
384.00 2.271
384.10 2.281
384.20 2.29
384.30 2.3
384.40 2.309
384.50 2.317
384.60 2.324
384.70 2.331
384.80 2.338
384.90 2.343
385.00 2.348
385.10 2.353
385.20 2.356
385.30 2.36
385.40 2.362
385.50 2.364
385.60 2.365
385.70 2.365
385.80 2.365
385.90 2.364
386.00 2.363
386.10 2.36
386.20 2.358
386.30 2.354
386.40 2.35
386.50 2.345
386.60 2.339
386.70 2.333
386.80 2.326
386.90 2.318
387.00 2.309
387.10 2.299
387.20 2.289
387.30 2.277
387.40 2.265
387.50 2.252
387.60 2.237
387.70 2.222
387.80 2.206
387.90 2.189
388.00 2.171
388.10 2.151
388.20 2.131
388.30 2.11
388.40 2.088
388.50 2.066
388.60 2.044
388.70 2.024
388.80 2.008
388.90 1.997
389.00 2.004
389.10 2.017
389.20 2.034
389.30 2.053
389.40 2.072
389.50 2.091
389.60 2.109
389.70 2.126
389.80 2.143
389.90 2.159
390.00 2.173
390.10 2.187
390.20 2.2
390.30 2.212
390.40 2.223
390.50 2.234
390.60 2.243
390.70 2.252
390.80 2.26
390.90 2.267
391.00 2.274
391.10 2.28
391.20 2.286
391.30 2.291
391.40 2.295
391.50 2.299
391.60 2.302
391.70 2.305
391.80 2.307
391.90 2.31
392.00 2.311
392.10 2.312
392.20 2.313
392.30 2.313
392.40 2.313
392.50 2.313
392.60 2.312
392.70 2.31
392.80 2.309
392.90 2.307
393.00 2.305
393.10 2.302
393.20 2.299
393.30 2.295
393.40 2.291
393.50 2.287
393.60 2.282
393.70 2.277
393.80 2.272
393.90 2.266
394.00 2.259
394.10 2.252
394.20 2.244
394.30 2.236
394.40 2.228
394.50 2.218
394.60 2.208
394.70 2.198
394.80 2.186
394.90 2.174
395.00 2.161
395.10 2.148
395.20 2.133
395.30 2.117
395.40 2.101
395.50 2.084
395.60 2.065
395.70 2.045
395.80 2.024
395.90 2.002
396.00 1.978
396.10 1.954
396.20 1.928
396.30 1.9
396.40 1.872
396.50 1.842
396.60 1.811
396.70 1.78
396.80 1.748
396.90 1.716
397.00 1.685
397.10 1.711
397.20 1.738
397.30 1.767
397.40 1.795
397.50 1.823
397.60 1.85
397.70 1.876
397.80 1.9
397.90 1.923
398.00 1.944
398.10 1.964
398.20 1.984
398.30 2.001
398.40 2.017
398.50 2.033
398.60 2.047
398.70 2.06
398.80 2.073
398.90 2.084
399.00 2.094
399.10 2.104
399.20 2.113
399.30 2.121
399.40 2.129
399.50 2.135
399.60 2.142
399.70 2.148
399.80 2.153
399.90 2.158
400.00 2.162
400.10 2.166
400.20 2.17
400.30 2.173
400.40 2.176
400.50 2.178
400.60 2.181
400.70 2.183
400.80 2.184
400.90 2.186
401.00 2.187
401.10 2.188
401.20 2.189
401.30 2.19
401.40 2.19
401.50 2.19
401.60 2.19
401.70 2.19
401.80 2.19
401.90 2.19
402.00 2.189
402.10 2.189
402.20 2.188
402.30 2.187
402.40 2.187
402.50 2.186
402.60 2.184
402.70 2.183
402.80 2.182
402.90 2.181
403.00 2.179
403.10 2.178
403.20 2.176
403.30 2.174
403.40 2.172
403.50 2.171
403.60 2.169
403.70 2.167
403.80 2.165
403.90 2.162
404.00 2.16
404.10 2.158
404.20 2.155
404.30 2.153
404.40 2.15
404.50 2.148
404.60 2.145
404.70 2.142
404.80 2.139
404.90 2.136
405.00 2.133
405.10 2.13
405.20 2.126
405.30 2.123
405.40 2.119
405.50 2.115
405.60 2.111
405.70 2.107
405.80 2.103
405.90 2.098
406.00 2.094
406.10 2.089
406.20 2.084
406.30 2.079
406.40 2.073
406.50 2.067
406.60 2.061
406.70 2.055
406.80 2.048
406.90 2.041
407.00 2.034
407.10 2.026
407.20 2.018
407.30 2.01
407.40 2.001
407.50 1.991
407.60 1.981
407.70 1.971
407.80 1.96
407.90 1.948
408.00 1.935
408.10 1.922
408.20 1.908
408.30 1.893
408.40 1.878
408.50 1.861
408.60 1.843
408.70 1.825
408.80 1.805
408.90 1.784
409.00 1.762
409.10 1.738
409.20 1.713
409.30 1.687
409.40 1.658
409.50 1.628
409.60 1.597
409.70 1.564
409.80 1.529
409.90 1.493
410.00 1.456
410.10 1.429
410.20 1.413
410.30 1.439
410.40 1.47
410.50 1.505
410.60 1.538
410.70 1.569
410.80 1.599
410.90 1.626
411.00 1.652
411.10 1.676
411.20 1.699
411.30 1.72
411.40 1.74
411.50 1.758
411.60 1.775
411.70 1.791
411.80 1.805
411.90 1.818
412.00 1.831
412.10 1.843
412.20 1.853
412.30 1.864
412.40 1.872
412.50 1.881
412.60 1.889
412.70 1.896
412.80 1.902
412.90 1.909
413.00 1.914
413.10 1.919
413.20 1.924
413.30 1.928
413.40 1.932
413.50 1.935
413.60 1.938
413.70 1.941
413.80 1.944
413.90 1.946
414.00 1.948
414.10 1.95
414.20 1.951
414.30 1.953
414.40 1.954
414.50 1.955
414.60 1.956
414.70 1.957
414.80 1.957
414.90 1.957
415.00 1.958
415.10 1.958
415.20 1.958
415.30 1.958
415.40 1.958
415.50 1.958
415.60 1.957
415.70 1.957
415.80 1.956
415.90 1.956
416.00 1.955
416.10 1.955
416.20 1.954
416.30 1.953
416.40 1.952
416.50 1.951
416.60 1.951
416.70 1.95
416.80 1.949
416.90 1.948
417.00 1.947
417.10 1.945
417.20 1.944
417.30 1.943
417.40 1.942
417.50 1.941
417.60 1.94
417.70 1.938
417.80 1.937
417.90 1.936
418.00 1.935
418.10 1.933
418.20 1.932
418.30 1.931
418.40 1.929
418.50 1.928
418.60 1.926
418.70 1.925
418.80 1.924
418.90 1.922
419.00 1.921
419.10 1.919
419.20 1.918
419.30 1.916
419.40 1.915
419.50 1.913
419.60 1.912
419.70 1.91
419.80 1.909
419.90 1.907
420.00 1.906
420.10 1.904
420.20 1.903
420.30 1.901
420.40 1.9
420.50 1.898
420.60 1.896
420.70 1.895
420.80 1.893
420.90 1.892
421.00 1.89
421.10 1.889
421.20 1.887
421.30 1.885
421.40 1.884
421.50 1.882
421.60 1.88
421.70 1.879
421.80 1.877
421.90 1.876
422.00 1.874
422.10 1.872
422.20 1.871
422.30 1.869
422.40 1.867
422.50 1.866
422.60 1.864
422.70 1.862
422.80 1.861
422.90 1.859
423.00 1.857
423.10 1.856
423.20 1.854
423.30 1.852
423.40 1.851
423.50 1.849
423.60 1.847
423.70 1.846
423.80 1.844
423.90 1.842
424.00 1.84
424.10 1.839
424.20 1.837
424.30 1.835
424.40 1.833
424.50 1.832
424.60 1.83
424.70 1.828
424.80 1.826
424.90 1.824
425.00 1.823
425.10 1.821
425.20 1.819
425.30 1.817
425.40 1.815
425.50 1.814
425.60 1.812
425.70 1.81
425.80 1.808
425.90 1.806
426.00 1.804
426.10 1.802
426.20 1.8
426.30 1.798
426.40 1.796
426.50 1.794
426.60 1.792
426.70 1.79
426.80 1.788
426.90 1.786
427.00 1.784
427.10 1.782
427.20 1.78
427.30 1.778
427.40 1.776
427.50 1.773
427.60 1.771
427.70 1.769
427.80 1.766
427.90 1.764
428.00 1.762
428.10 1.759
428.20 1.757
428.30 1.754
428.40 1.752
428.50 1.749
428.60 1.746
428.70 1.744
428.80 1.741
428.90 1.738
429.00 1.735
429.10 1.732
429.20 1.729
429.30 1.726
429.40 1.722
429.50 1.719
429.60 1.715
429.70 1.712
429.80 1.708
429.90 1.704
430.00 1.7
430.10 1.695
430.20 1.691
430.30 1.686
430.40 1.682
430.50 1.677
430.60 1.671
430.70 1.666
430.80 1.66
430.90 1.654
431.00 1.648
431.10 1.641
431.20 1.634
431.30 1.626
431.40 1.619
431.50 1.611
431.60 1.602
431.70 1.592
431.80 1.583
431.90 1.572
432.00 1.561
432.10 1.55
432.20 1.537
432.30 1.524
432.40 1.511
432.50 1.496
432.60 1.48
432.70 1.463
432.80 1.445
432.90 1.426
433.00 1.406
433.10 1.384
433.20 1.361
433.30 1.337
433.40 1.311
433.50 1.283
433.60 1.254
433.70 1.223
433.80 1.19
433.90 1.156
434.00 1.12
434.10 1.12
434.20 1.156
434.30 1.188
434.40 1.219
434.50 1.248
434.60 1.275
434.70 1.3
434.80 1.324
434.90 1.346
435.00 1.366
435.10 1.385
435.20 1.403
435.30 1.419
435.40 1.435
435.50 1.448
435.60 1.461
435.70 1.473
435.80 1.484
435.90 1.495
436.00 1.504
436.10 1.513
436.20 1.521
436.30 1.528
436.40 1.535
436.50 1.541
436.60 1.547
436.70 1.552
436.80 1.557
436.90 1.561
437.00 1.565
437.10 1.569
437.20 1.572
437.30 1.575
437.40 1.578
437.50 1.581
437.60 1.583
437.70 1.585
437.80 1.587
437.90 1.588
438.00 1.59
438.10 1.591
438.20 1.592
438.30 1.593
438.40 1.594
438.50 1.594
438.60 1.595
438.70 1.595
438.80 1.596
438.90 1.596
439.00 1.596
439.10 1.596
439.20 1.596
439.30 1.596
439.40 1.596
439.50 1.595
439.60 1.595
439.70 1.595
439.80 1.594
439.90 1.594
440.00 1.593
440.10 1.593
440.20 1.592
440.30 1.592
440.40 1.591
440.50 1.59
440.60 1.59
440.70 1.589
440.80 1.588
440.90 1.587
441.00 1.587
441.10 1.586
441.20 1.585
441.30 1.584
441.40 1.583
441.50 1.582
441.60 1.581
441.70 1.58
441.80 1.579
441.90 1.578
442.00 1.577
442.10 1.576
442.20 1.575
442.30 1.574
442.40 1.573
442.50 1.572
442.60 1.571
442.70 1.57
442.80 1.569
442.90 1.568
443.00 1.567
443.10 1.566
443.20 1.565
443.30 1.563
443.40 1.562
443.50 1.561
443.60 1.56
443.70 1.559
443.80 1.558
443.90 1.557
444.00 1.555
444.10 1.554
444.20 1.553
444.30 1.552
444.40 1.551
444.50 1.55
444.60 1.549
444.70 1.547
444.80 1.546
444.90 1.545
445.00 1.544
445.10 1.543
445.20 1.541
445.30 1.54
445.40 1.539
445.50 1.538
445.60 1.537
445.70 1.535
445.80 1.534
445.90 1.533
446.00 1.532
446.10 1.531
446.20 1.529
446.30 1.528
446.40 1.527
446.50 1.526
446.60 1.525
446.70 1.523
446.80 1.522
446.90 1.521
447.00 1.52
447.10 1.519
447.20 1.517
447.30 1.516
447.40 1.515
447.50 1.514
447.60 1.513
447.70 1.511
447.80 1.51
447.90 1.509
448.00 1.508
448.10 1.506
448.20 1.505
448.30 1.504
448.40 1.503
448.50 1.502
448.60 1.5
448.70 1.499
448.80 1.498
448.90 1.497
449.00 1.496
449.10 1.494
449.20 1.493
449.30 1.492
449.40 1.491
449.50 1.49
449.60 1.488
449.70 1.487
449.80 1.486
449.90 1.485
450.00 1.483
450.10 1.482
450.20 1.481
450.30 1.48
450.40 1.479
450.50 1.477
450.60 1.476
450.70 1.475
450.80 1.474
450.90 1.473
451.00 1.471
451.10 1.47
451.20 1.469
451.30 1.468
451.40 1.467
451.50 1.466
451.60 1.464
451.70 1.463
451.80 1.462
451.90 1.461
452.00 1.46
452.10 1.458
452.20 1.457
452.30 1.456
452.40 1.455
452.50 1.454
452.60 1.452
452.70 1.451
452.80 1.45
452.90 1.449
453.00 1.448
453.10 1.447
453.20 1.445
453.30 1.444
453.40 1.443
453.50 1.442
453.60 1.441
453.70 1.439
453.80 1.438
453.90 1.437
454.00 1.436
454.10 1.435
