# Version 2.1 - nm, norm@500 to 1, cut digits, bergeron_8000_65.dat_8000
# Wavelength(nm)  Flambda(ergs/cm^s/s/nm)
300.00 1.226
300.10 1.226
300.20 1.226
300.30 1.226
300.40 1.226
300.50 1.225
300.60 1.225
300.70 1.225
300.80 1.225
300.90 1.225
301.00 1.225
301.10 1.225
301.20 1.225
301.30 1.225
301.40 1.225
301.50 1.224
301.60 1.224
301.70 1.224
301.80 1.224
301.90 1.224
302.00 1.224
302.10 1.224
302.20 1.224
302.30 1.224
302.40 1.224
302.50 1.223
302.60 1.223
302.70 1.223
302.80 1.223
302.90 1.223
303.00 1.223
303.10 1.223
303.20 1.223
303.30 1.223
303.40 1.222
303.50 1.222
303.60 1.222
303.70 1.222
303.80 1.222
303.90 1.222
304.00 1.222
304.10 1.222
304.20 1.222
304.30 1.221
304.40 1.221
304.50 1.221
304.60 1.221
304.70 1.221
304.80 1.221
304.90 1.221
305.00 1.221
305.10 1.221
305.20 1.22
305.30 1.22
305.40 1.22
305.50 1.22
305.60 1.22
305.70 1.22
305.80 1.22
305.90 1.22
306.00 1.22
306.10 1.219
306.20 1.219
306.30 1.219
306.40 1.219
306.50 1.219
306.60 1.219
306.70 1.219
306.80 1.219
306.90 1.218
307.00 1.218
307.10 1.218
307.20 1.218
307.30 1.218
307.40 1.218
307.50 1.218
307.60 1.218
307.70 1.217
307.80 1.217
307.90 1.217
308.00 1.217
308.10 1.217
308.20 1.217
308.30 1.217
308.40 1.217
308.50 1.216
308.60 1.216
308.70 1.216
308.80 1.216
308.90 1.216
309.00 1.216
309.10 1.216
309.20 1.215
309.30 1.215
309.40 1.215
309.50 1.215
309.60 1.215
309.70 1.215
309.80 1.215
309.90 1.215
310.00 1.214
310.10 1.214
310.20 1.214
310.30 1.214
310.40 1.214
310.50 1.214
310.60 1.214
310.70 1.213
310.80 1.213
310.90 1.213
311.00 1.213
311.10 1.213
311.20 1.213
311.30 1.213
311.40 1.212
311.50 1.212
311.60 1.212
311.70 1.212
311.80 1.212
311.90 1.212
312.00 1.212
312.10 1.211
312.20 1.211
312.30 1.211
312.40 1.211
312.50 1.211
312.60 1.211
312.70 1.211
312.80 1.21
312.90 1.21
313.00 1.21
313.10 1.21
313.20 1.21
313.30 1.21
313.40 1.21
313.50 1.209
313.60 1.209
313.70 1.209
313.80 1.209
313.90 1.209
314.00 1.209
314.10 1.209
314.20 1.208
314.30 1.208
314.40 1.208
314.50 1.208
314.60 1.208
314.70 1.208
314.80 1.207
314.90 1.207
315.00 1.207
315.10 1.207
315.20 1.207
315.30 1.207
315.40 1.207
315.50 1.206
315.60 1.206
315.70 1.206
315.80 1.206
315.90 1.206
316.00 1.206
316.10 1.205
316.20 1.205
316.30 1.205
316.40 1.205
316.50 1.205
316.60 1.205
316.70 1.204
316.80 1.204
316.90 1.204
317.00 1.204
317.10 1.204
317.20 1.204
317.30 1.203
317.40 1.203
317.50 1.203
317.60 1.203
317.70 1.203
317.80 1.203
317.90 1.202
318.00 1.202
318.10 1.202
318.20 1.202
318.30 1.202
318.40 1.202
318.50 1.201
318.60 1.201
318.70 1.201
318.80 1.201
318.90 1.201
319.00 1.201
319.10 1.2
319.20 1.2
319.30 1.2
319.40 1.2
319.50 1.2
319.60 1.2
319.70 1.199
319.80 1.199
319.90 1.199
320.00 1.199
320.10 1.199
320.20 1.199
320.30 1.198
320.40 1.198
320.50 1.198
320.60 1.198
320.70 1.198
320.80 1.198
320.90 1.197
321.00 1.197
321.10 1.197
321.20 1.197
321.30 1.197
321.40 1.196
321.50 1.196
321.60 1.196
321.70 1.196
321.80 1.196
321.90 1.196
322.00 1.195
322.10 1.195
322.20 1.195
322.30 1.195
322.40 1.195
322.50 1.195
322.60 1.194
322.70 1.194
322.80 1.194
322.90 1.194
323.00 1.194
323.10 1.193
323.20 1.193
323.30 1.193
323.40 1.193
323.50 1.193
323.60 1.192
323.70 1.192
323.80 1.192
323.90 1.192
324.00 1.192
324.10 1.192
324.20 1.191
324.30 1.191
324.40 1.191
324.50 1.191
324.60 1.191
324.70 1.19
324.80 1.19
324.90 1.19
325.00 1.19
325.10 1.19
325.20 1.19
325.30 1.189
325.40 1.189
325.50 1.189
325.60 1.189
325.70 1.189
325.80 1.188
325.90 1.188
326.00 1.188
326.10 1.188
326.20 1.188
326.30 1.187
326.40 1.187
326.50 1.187
326.60 1.187
326.70 1.187
326.80 1.187
326.90 1.186
327.00 1.186
327.10 1.186
327.20 1.186
327.30 1.186
327.40 1.185
327.50 1.185
327.60 1.185
327.70 1.185
327.80 1.185
327.90 1.184
328.00 1.184
328.10 1.184
328.20 1.184
328.30 1.184
328.40 1.183
328.50 1.183
328.60 1.183
328.70 1.183
328.80 1.183
328.90 1.182
329.00 1.182
329.10 1.182
329.20 1.182
329.30 1.182
329.40 1.181
329.50 1.181
329.60 1.181
329.70 1.181
329.80 1.181
329.90 1.18
330.00 1.18
330.10 1.18
330.20 1.18
330.30 1.18
330.40 1.179
330.50 1.179
330.60 1.179
330.70 1.179
330.80 1.179
330.90 1.178
331.00 1.178
331.10 1.178
331.20 1.178
331.30 1.178
331.40 1.177
331.50 1.177
331.60 1.177
331.70 1.177
331.80 1.177
331.90 1.176
332.00 1.176
332.10 1.176
332.20 1.176
332.30 1.176
332.40 1.175
332.50 1.175
332.60 1.175
332.70 1.175
332.80 1.175
332.90 1.174
333.00 1.174
333.10 1.174
333.20 1.174
333.30 1.173
333.40 1.173
333.50 1.173
333.60 1.173
333.70 1.173
333.80 1.172
333.90 1.172
334.00 1.172
334.10 1.172
334.20 1.172
334.30 1.171
334.40 1.171
334.50 1.171
334.60 1.171
334.70 1.171
334.80 1.17
334.90 1.17
335.00 1.17
335.10 1.17
335.20 1.169
335.30 1.169
335.40 1.169
335.50 1.169
335.60 1.169
335.70 1.168
335.80 1.168
335.90 1.168
336.00 1.168
336.10 1.168
336.20 1.167
336.30 1.167
336.40 1.167
336.50 1.167
336.60 1.166
336.70 1.166
336.80 1.166
336.90 1.166
337.00 1.166
337.10 1.165
337.20 1.165
337.30 1.165
337.40 1.165
337.50 1.164
337.60 1.164
337.70 1.164
337.80 1.164
337.90 1.164
338.00 1.163
338.10 1.163
338.20 1.163
338.30 1.163
338.40 1.162
338.50 1.162
338.60 1.162
338.70 1.162
338.80 1.162
338.90 1.161
339.00 1.161
339.10 1.161
339.20 1.161
339.30 1.16
339.40 1.16
339.50 1.16
339.60 1.16
339.70 1.16
339.80 1.159
339.90 1.159
340.00 1.159
340.10 1.159
340.20 1.158
340.30 1.158
340.40 1.158
340.50 1.158
340.60 1.158
340.70 1.157
340.80 1.157
340.90 1.157
341.00 1.157
341.10 1.156
341.20 1.156
341.30 1.156
341.40 1.156
341.50 1.155
341.60 1.155
341.70 1.155
341.80 1.155
341.90 1.155
342.00 1.154
342.10 1.154
342.20 1.154
342.30 1.154
342.40 1.153
342.50 1.153
342.60 1.153
342.70 1.153
342.80 1.153
342.90 1.152
343.00 1.152
343.10 1.152
343.20 1.152
343.30 1.151
343.40 1.151
343.50 1.151
343.60 1.151
343.70 1.15
343.80 1.15
343.90 1.15
344.00 1.15
344.10 1.15
344.20 1.149
344.30 1.149
344.40 1.149
344.50 1.149
344.60 1.148
344.70 1.148
344.80 1.148
344.90 1.148
345.00 1.147
345.10 1.147
345.20 1.147
345.30 1.147
345.40 1.146
345.50 1.146
345.60 1.146
345.70 1.146
345.80 1.146
345.90 1.145
346.00 1.145
346.10 1.145
346.20 1.145
346.30 1.144
346.40 1.144
346.50 1.144
346.60 1.144
346.70 1.143
346.80 1.143
346.90 1.143
347.00 1.143
347.10 1.142
347.20 1.142
347.30 1.142
347.40 1.142
347.50 1.142
347.60 1.141
347.70 1.141
347.80 1.141
347.90 1.141
348.00 1.14
348.10 1.14
348.20 1.14
348.30 1.14
348.40 1.139
348.50 1.139
348.60 1.139
348.70 1.139
348.80 1.138
348.90 1.138
349.00 1.138
349.10 1.138
349.20 1.137
349.30 1.137
349.40 1.137
349.50 1.137
349.60 1.136
349.70 1.136
349.80 1.136
349.90 1.136
350.00 1.135
350.10 1.135
350.20 1.135
350.30 1.135
350.40 1.135
350.50 1.134
350.60 1.134
350.70 1.134
350.80 1.134
350.90 1.133
351.00 1.133
351.10 1.133
351.20 1.133
351.30 1.132
351.40 1.132
351.50 1.132
351.60 1.132
351.70 1.131
351.80 1.131
351.90 1.131
352.00 1.131
352.10 1.13
352.20 1.13
352.30 1.13
352.40 1.13
352.50 1.129
352.60 1.129
352.70 1.129
352.80 1.129
352.90 1.128
353.00 1.128
353.10 1.128
353.20 1.128
353.30 1.127
353.40 1.127
353.50 1.127
353.60 1.127
353.70 1.126
353.80 1.126
353.90 1.126
354.00 1.126
354.10 1.125
354.20 1.125
354.30 1.125
354.40 1.125
354.50 1.124
354.60 1.124
354.70 1.124
354.80 1.124
354.90 1.123
355.00 1.123
355.10 1.123
355.20 1.123
355.30 1.122
355.40 1.122
355.50 1.122
355.60 1.122
355.70 1.121
355.80 1.121
355.90 1.121
356.00 1.121
356.10 1.12
356.20 1.12
356.30 1.12
356.40 1.12
356.50 1.119
356.60 1.119
356.70 1.119
356.80 1.119
356.90 1.118
357.00 1.118
357.10 1.118
357.20 1.118
357.30 1.117
357.40 1.117
357.50 1.117
357.60 1.117
357.70 1.116
357.80 1.116
357.90 1.116
358.00 1.116
358.10 1.115
358.20 1.115
358.30 1.115
358.40 1.115
358.50 1.114
358.60 1.114
358.70 1.114
358.80 1.113
358.90 1.113
359.00 1.113
359.10 1.113
359.20 1.112
359.30 1.112
359.40 1.112
359.50 1.112
359.60 1.111
359.70 1.111
359.80 1.111
359.90 1.111
360.00 1.11
360.10 1.11
360.20 1.11
360.30 1.11
360.40 1.109
360.50 1.109
360.60 1.109
360.70 1.109
360.80 1.108
360.90 1.108
361.00 1.108
361.10 1.108
361.20 1.107
361.30 1.107
361.40 1.107
361.50 1.107
361.60 1.106
361.70 1.106
361.80 1.106
361.90 1.106
362.00 1.105
362.10 1.105
362.20 1.105
362.30 1.105
362.40 1.104
362.50 1.104
362.60 1.104
362.70 1.103
362.80 1.103
362.90 1.103
363.00 1.103
363.10 1.102
363.20 1.102
363.30 1.102
363.40 1.102
363.50 1.101
363.60 1.101
363.70 1.101
363.80 1.1
363.90 1.1
364.00 1.1
364.10 1.1
364.20 1.099
364.30 1.099
364.40 1.099
364.50 1.099
364.60 1.098
364.70 1.098
364.80 1.098
364.90 1.098
365.00 1.098
365.10 1.098
365.20 1.098
365.30 1.098
365.40 1.097
365.50 1.097
365.60 1.097
365.70 1.097
365.80 1.097
365.90 1.097
366.00 1.097
366.10 1.097
366.20 1.097
366.30 1.097
366.40 1.096
366.50 1.096
366.60 1.096
366.70 1.096
366.80 1.096
366.90 1.096
367.00 1.096
367.10 1.096
367.20 1.096
367.30 1.096
367.40 1.096
367.50 1.096
367.60 1.096
367.70 1.096
367.80 1.096
367.90 1.096
368.00 1.096
368.10 1.097
368.20 1.099
368.30 1.1
368.40 1.102
368.50 1.103
368.60 1.105
368.70 1.107
368.80 1.108
368.90 1.11
369.00 1.111
369.10 1.113
369.20 1.114
369.30 1.116
369.40 1.117
369.50 1.119
369.60 1.12
369.70 1.122
369.80 1.123
369.90 1.125
370.00 1.126
370.10 1.129
370.20 1.132
370.30 1.135
370.40 1.138
370.50 1.14
370.60 1.143
370.70 1.146
370.80 1.149
370.90 1.151
371.00 1.154
371.10 1.157
371.20 1.16
371.30 1.163
371.40 1.165
371.50 1.168
371.60 1.171
371.70 1.174
371.80 1.176
371.90 1.179
372.00 1.182
372.10 1.185
372.20 1.188
372.30 1.191
372.40 1.194
372.50 1.197
372.60 1.2
372.70 1.203
372.80 1.206
372.90 1.209
373.00 1.212
373.10 1.214
373.20 1.217
373.30 1.22
373.40 1.223
373.50 1.226
373.60 1.229
373.70 1.232
373.80 1.235
373.90 1.238
374.00 1.241
374.10 1.243
374.20 1.246
374.30 1.248
374.40 1.25
374.50 1.253
374.60 1.255
374.70 1.257
374.80 1.26
374.90 1.262
375.00 1.264
375.10 1.267
375.20 1.269
375.30 1.271
375.40 1.274
375.50 1.276
375.60 1.278
375.70 1.281
375.80 1.283
375.90 1.285
376.00 1.288
376.10 1.289
376.20 1.29
376.30 1.291
376.40 1.292
376.50 1.293
376.60 1.294
376.70 1.296
376.80 1.297
376.90 1.298
377.00 1.299
377.10 1.297
377.20 1.296
377.30 1.295
377.40 1.293
377.50 1.292
377.60 1.29
377.70 1.289
377.80 1.287
377.90 1.286
378.00 1.284
378.10 1.272
378.20 1.26
378.30 1.248
378.40 1.236
378.50 1.225
378.60 1.213
378.70 1.201
378.80 1.189
378.90 1.177
379.00 1.165
379.10 1.139
379.20 1.113
379.30 1.086
379.40 1.06
379.50 1.034
379.60 1.008
379.70 0.9818
379.80 0.9557
379.90 0.9297
380.00 0.9036
380.10 0.937
380.20 0.9704
380.30 1.004
380.40 1.037
380.50 1.07
380.60 1.104
380.70 1.137
380.80 1.17
380.90 1.203
381.00 1.236
381.10 1.242
381.20 1.249
381.30 1.255
381.40 1.261
381.50 1.267
381.60 1.268
381.70 1.268
381.80 1.266
381.90 1.262
382.00 1.256
382.10 1.248
382.20 1.238
382.30 1.206
382.40 1.174
382.50 1.142
382.60 1.11
382.70 1.078
382.80 1.047
382.90 1.015
383.00 0.983
383.10 0.9512
383.20 0.9195
383.30 0.8346
383.40 0.7171
383.50 0.552
383.60 0.5923
383.70 0.7466
383.80 0.8559
383.90 0.9357
384.00 0.9968
384.10 1.046
384.20 1.088
384.30 1.123
384.40 1.154
384.50 1.18
384.60 1.203
384.70 1.223
384.80 1.239
384.90 1.254
385.00 1.266
385.10 1.275
385.20 1.284
385.30 1.292
385.40 1.298
385.50 1.303
385.60 1.307
385.70 1.31
385.80 1.313
385.90 1.315
386.00 1.316
386.10 1.317
386.20 1.317
386.30 1.316
386.40 1.314
386.50 1.313
386.60 1.31
386.70 1.306
386.80 1.302
386.90 1.297
387.00 1.291
387.10 1.284
387.20 1.276
387.30 1.266
387.40 1.256
387.50 1.242
387.60 1.227
387.70 1.211
387.80 1.189
387.90 1.165
388.00 1.138
388.10 1.103
388.20 1.064
388.30 1.021
388.40 0.9654
388.50 0.8998
388.60 0.8239
388.70 0.7116
388.80 0.5746
388.90 0.4131
389.00 0.5652
389.10 0.6991
389.20 0.8147
389.30 0.8923
389.40 0.9592
389.50 1.015
389.60 1.059
389.70 1.099
389.80 1.134
389.90 1.162
390.00 1.186
390.10 1.208
390.20 1.226
390.30 1.241
390.40 1.255
390.50 1.267
390.60 1.277
390.70 1.287
390.80 1.295
390.90 1.302
391.00 1.309
391.10 1.314
391.20 1.319
391.30 1.324
391.40 1.328
391.50 1.332
391.60 1.335
391.70 1.338
391.80 1.341
391.90 1.343
392.00 1.345
392.10 1.347
392.20 1.348
392.30 1.349
392.40 1.35
392.50 1.351
392.60 1.352
392.70 1.352
392.80 1.352
392.90 1.352
393.00 1.351
393.10 1.351
393.20 1.35
393.30 1.349
393.40 1.348
393.50 1.346
393.60 1.344
393.70 1.342
393.80 1.34
393.90 1.338
394.00 1.335
394.10 1.332
394.20 1.328
394.30 1.324
394.40 1.32
394.50 1.315
394.60 1.31
394.70 1.304
394.80 1.298
394.90 1.291
395.00 1.283
395.10 1.275
395.20 1.266
395.30 1.255
395.40 1.244
395.50 1.231
395.60 1.216
395.70 1.2
395.80 1.181
395.90 1.159
396.00 1.134
396.10 1.106
396.20 1.07
396.30 1.029
396.40 0.9837
396.50 0.9252
396.60 0.8567
396.70 0.7783
396.80 0.6659
396.90 0.5305
397.00 0.3721
397.10 0.5176
397.20 0.6486
397.30 0.7651
397.40 0.8457
397.50 0.9157
397.60 0.9753
397.70 1.022
397.80 1.063
397.90 1.099
398.00 1.127
398.10 1.152
398.20 1.174
398.30 1.192
398.40 1.209
398.50 1.224
398.60 1.236
398.70 1.247
398.80 1.258
398.90 1.266
399.00 1.275
399.10 1.282
399.20 1.289
399.30 1.295
399.40 1.3
399.50 1.305
399.60 1.31
399.70 1.314
399.80 1.318
399.90 1.322
400.00 1.325
400.10 1.328
400.20 1.331
400.30 1.333
400.40 1.335
400.50 1.338
400.60 1.339
400.70 1.341
400.80 1.343
400.90 1.344
401.00 1.345
401.10 1.347
401.20 1.348
401.30 1.349
401.40 1.349
401.50 1.35
401.60 1.351
401.70 1.352
401.80 1.352
401.90 1.353
402.00 1.353
402.10 1.353
402.20 1.353
402.30 1.354
402.40 1.354
402.50 1.354
402.60 1.354
402.70 1.354
402.80 1.354
402.90 1.354
403.00 1.354
403.10 1.353
403.20 1.353
403.30 1.353
403.40 1.353
403.50 1.352
403.60 1.352
403.70 1.351
403.80 1.351
403.90 1.35
404.00 1.35
404.10 1.349
404.20 1.349
404.30 1.348
404.40 1.347
404.50 1.347
404.60 1.346
404.70 1.345
404.80 1.344
404.90 1.343
405.00 1.342
405.10 1.341
405.20 1.34
405.30 1.339
405.40 1.337
405.50 1.336
405.60 1.334
405.70 1.333
405.80 1.331
405.90 1.33
406.00 1.328
406.10 1.326
406.20 1.324
406.30 1.322
406.40 1.319
406.50 1.317
406.60 1.314
406.70 1.312
406.80 1.309
406.90 1.305
407.00 1.302
407.10 1.298
407.20 1.294
407.30 1.29
407.40 1.285
407.50 1.281
407.60 1.275
407.70 1.269
407.80 1.263
407.90 1.256
408.00 1.249
408.10 1.241
408.20 1.232
408.30 1.223
408.40 1.212
408.50 1.201
408.60 1.189
408.70 1.175
408.80 1.16
408.90 1.143
409.00 1.124
409.10 1.102
409.20 1.076
409.30 1.048
409.40 1.012
409.50 0.9704
409.60 0.9236
409.70 0.8628
409.80 0.7917
409.90 0.7104
410.00 0.5945
410.10 0.4846
410.20 0.3808
410.30 0.5314
410.40 0.6573
410.50 0.7585
410.60 0.8312
410.70 0.8948
410.80 0.9494
410.90 0.9915
411.00 1.029
411.10 1.061
411.20 1.087
411.30 1.109
411.40 1.13
411.50 1.146
411.60 1.161
411.70 1.175
411.80 1.187
411.90 1.198
412.00 1.208
412.10 1.217
412.20 1.225
412.30 1.233
412.40 1.24
412.50 1.246
412.60 1.252
412.70 1.257
412.80 1.262
412.90 1.266
413.00 1.27
413.10 1.274
413.20 1.277
413.30 1.28
413.40 1.283
413.50 1.286
413.60 1.288
413.70 1.29
413.80 1.292
413.90 1.294
414.00 1.296
414.10 1.297
414.20 1.299
414.30 1.3
414.40 1.301
414.50 1.302
414.60 1.303
414.70 1.304
414.80 1.305
414.90 1.306
415.00 1.306
415.10 1.307
415.20 1.307
415.30 1.308
415.40 1.308
415.50 1.309
415.60 1.309
415.70 1.309
415.80 1.31
415.90 1.31
416.00 1.31
416.10 1.31
416.20 1.31
416.30 1.311
416.40 1.311
416.50 1.311
416.60 1.311
416.70 1.311
416.80 1.311
416.90 1.311
417.00 1.311
417.10 1.311
417.20 1.311
417.30 1.311
417.40 1.31
417.50 1.31
417.60 1.31
417.70 1.31
417.80 1.31
417.90 1.31
418.00 1.31
418.10 1.309
418.20 1.309
418.30 1.309
418.40 1.309
418.50 1.308
418.60 1.308
418.70 1.308
418.80 1.308
418.90 1.307
419.00 1.307
419.10 1.307
419.20 1.307
419.30 1.306
419.40 1.306
419.50 1.306
419.60 1.305
419.70 1.305
419.80 1.305
419.90 1.304
420.00 1.304
420.10 1.304
420.20 1.303
420.30 1.303
420.40 1.303
420.50 1.302
420.60 1.302
420.70 1.302
420.80 1.301
420.90 1.301
421.00 1.301
421.10 1.3
421.20 1.3
421.30 1.299
421.40 1.299
421.50 1.299
421.60 1.298
421.70 1.298
421.80 1.297
421.90 1.297
422.00 1.297
422.10 1.296
422.20 1.296
422.30 1.295
422.40 1.295
422.50 1.294
422.60 1.294
422.70 1.294
422.80 1.293
422.90 1.293
423.00 1.292
423.10 1.292
423.20 1.291
423.30 1.291
423.40 1.29
423.50 1.29
423.60 1.289
423.70 1.289
423.80 1.289
423.90 1.288
424.00 1.288
424.10 1.287
424.20 1.287
424.30 1.286
424.40 1.286
424.50 1.285
424.60 1.285
424.70 1.284
424.80 1.283
424.90 1.283
425.00 1.282
425.10 1.282
425.20 1.281
425.30 1.281
425.40 1.28
425.50 1.28
425.60 1.279
425.70 1.279
425.80 1.278
425.90 1.277
426.00 1.277
426.10 1.276
426.20 1.275
426.30 1.275
426.40 1.274
426.50 1.273
426.60 1.273
426.70 1.272
426.80 1.271
426.90 1.271
427.00 1.27
427.10 1.269
427.20 1.268
427.30 1.268
427.40 1.267
427.50 1.266
427.60 1.265
427.70 1.264
427.80 1.263
427.90 1.263
428.00 1.262
428.10 1.261
428.20 1.26
428.30 1.259
428.40 1.258
428.50 1.256
428.60 1.255
428.70 1.254
428.80 1.253
428.90 1.252
429.00 1.25
429.10 1.249
429.20 1.248
429.30 1.246
429.40 1.245
429.50 1.243
429.60 1.241
429.70 1.239
429.80 1.238
429.90 1.236
430.00 1.234
430.10 1.232
430.20 1.229
430.30 1.227
430.40 1.224
430.50 1.222
430.60 1.219
430.70 1.216
430.80 1.213
430.90 1.21
431.00 1.207
431.10 1.203
431.20 1.2
431.30 1.196
431.40 1.191
431.50 1.187
431.60 1.182
431.70 1.177
431.80 1.171
431.90 1.165
432.00 1.157
432.10 1.15
432.20 1.141
432.30 1.131
432.40 1.12
432.50 1.107
432.60 1.092
432.70 1.077
432.80 1.059
432.90 1.04
433.00 1.019
433.10 0.9953
433.20 0.9684
433.30 0.9385
433.40 0.8986
433.50 0.8521
433.60 0.7988
433.70 0.7286
433.80 0.6447
433.90 0.5471
434.00 0.4151
434.10 0.4182
434.20 0.5563
434.30 0.6519
434.40 0.734
434.50 0.8028
434.60 0.8547
434.70 0.9
434.80 0.9386
434.90 0.9675
435.00 0.9934
435.10 1.016
435.20 1.036
435.30 1.054
435.40 1.071
435.50 1.086
435.60 1.099
435.70 1.111
435.80 1.121
435.90 1.13
436.00 1.139
436.10 1.145
436.20 1.152
436.30 1.157
436.40 1.162
436.50 1.166
436.60 1.171
436.70 1.174
436.80 1.177
436.90 1.18
437.00 1.183
437.10 1.186
437.20 1.188
437.30 1.191
437.40 1.193
437.50 1.195
437.60 1.197
437.70 1.198
437.80 1.2
437.90 1.201
438.00 1.203
438.10 1.204
438.20 1.205
438.30 1.206
438.40 1.207
438.50 1.208
438.60 1.209
438.70 1.21
438.80 1.21
438.90 1.211
439.00 1.212
439.10 1.212
439.20 1.213
439.30 1.213
439.40 1.214
439.50 1.214
439.60 1.214
439.70 1.214
439.80 1.215
439.90 1.215
440.00 1.215
440.10 1.215
440.20 1.215
440.30 1.215
440.40 1.215
440.50 1.215
440.60 1.215
440.70 1.215
440.80 1.215
440.90 1.215
441.00 1.215
441.10 1.215
441.20 1.215
441.30 1.215
441.40 1.215
441.50 1.215
441.60 1.215
441.70 1.214
441.80 1.214
441.90 1.214
442.00 1.214
442.10 1.214
442.20 1.213
442.30 1.213
442.40 1.213
442.50 1.213
442.60 1.213
442.70 1.212
442.80 1.212
442.90 1.212
443.00 1.212
443.10 1.211
443.20 1.211
443.30 1.211
443.40 1.211
443.50 1.21
443.60 1.21
443.70 1.21
443.80 1.209
443.90 1.209
444.00 1.209
444.10 1.209
444.20 1.208
444.30 1.208
444.40 1.208
444.50 1.207
444.60 1.207
444.70 1.207
444.80 1.206
444.90 1.206
445.00 1.206
445.10 1.205
445.20 1.205
445.30 1.205
445.40 1.205
445.50 1.204
445.60 1.204
445.70 1.204
445.80 1.203
445.90 1.203
446.00 1.202
446.10 1.202
446.20 1.202
446.30 1.201
446.40 1.201
446.50 1.201
446.60 1.2
446.70 1.2
446.80 1.2
446.90 1.199
447.00 1.199
447.10 1.199
447.20 1.198
447.30 1.198
447.40 1.198
447.50 1.197
447.60 1.197
447.70 1.196
447.80 1.196
447.90 1.196
448.00 1.195
448.10 1.195
448.20 1.195
448.30 1.194
448.40 1.194
448.50 1.194
448.60 1.193
448.70 1.193
448.80 1.192
448.90 1.192
449.00 1.192
449.10 1.191
449.20 1.191
449.30 1.191
449.40 1.19
449.50 1.19
449.60 1.189
449.70 1.189
449.80 1.189
449.90 1.188
450.00 1.188
450.10 1.188
450.20 1.187
450.30 1.187
450.40 1.186
450.50 1.186
450.60 1.186
450.70 1.185
450.80 1.185
450.90 1.185
451.00 1.184
451.10 1.184
451.20 1.183
451.30 1.183
451.40 1.183
451.50 1.182
451.60 1.182
451.70 1.181
451.80 1.181
451.90 1.181
452.00 1.18
452.10 1.18
452.20 1.18
452.30 1.179
452.40 1.179
452.50 1.178
452.60 1.178
452.70 1.178
452.80 1.177
452.90 1.177
453.00 1.176
453.10 1.176
453.20 1.176
453.30 1.175
453.40 1.175
453.50 1.175
453.60 1.174
