# Version 2.1 - nm, norm@500 to 1, cut digits, bergeron_120000_85.dat_120000
# Wavelength(nm)  Flambda(ergs/cm^s/s/nm)
300.00 6.964
300.10 6.955
300.20 6.947
300.30 6.938
300.40 6.929
300.50 6.92
300.60 6.912
300.70 6.903
300.80 6.894
300.90 6.885
301.00 6.877
301.10 6.868
301.20 6.859
301.30 6.851
301.40 6.842
301.50 6.833
301.60 6.825
301.70 6.816
301.80 6.808
301.90 6.799
302.00 6.791
302.10 6.782
302.20 6.773
302.30 6.765
302.40 6.756
302.50 6.748
302.60 6.74
302.70 6.731
302.80 6.723
302.90 6.714
303.00 6.706
303.10 6.697
303.20 6.689
303.30 6.681
303.40 6.672
303.50 6.664
303.60 6.656
303.70 6.647
303.80 6.639
303.90 6.631
304.00 6.622
304.10 6.614
304.20 6.606
304.30 6.598
304.40 6.589
304.50 6.581
304.60 6.573
304.70 6.565
304.80 6.556
304.90 6.548
305.00 6.54
305.10 6.532
305.20 6.524
305.30 6.516
305.40 6.508
305.50 6.499
305.60 6.491
305.70 6.483
305.80 6.475
305.90 6.467
306.00 6.459
306.10 6.451
306.20 6.443
306.30 6.435
306.40 6.427
306.50 6.419
306.60 6.411
306.70 6.403
306.80 6.395
306.90 6.387
307.00 6.38
307.10 6.372
307.20 6.364
307.30 6.356
307.40 6.348
307.50 6.34
307.60 6.332
307.70 6.325
307.80 6.317
307.90 6.309
308.00 6.301
308.10 6.293
308.20 6.286
308.30 6.278
308.40 6.27
308.50 6.262
308.60 6.255
308.70 6.247
308.80 6.239
308.90 6.232
309.00 6.224
309.10 6.216
309.20 6.209
309.30 6.201
309.40 6.193
309.50 6.186
309.60 6.178
309.70 6.171
309.80 6.163
309.90 6.155
310.00 6.148
310.10 6.14
310.20 6.133
310.30 6.125
310.40 6.118
310.50 6.11
310.60 6.103
310.70 6.095
310.80 6.088
310.90 6.08
311.00 6.073
311.10 6.066
311.20 6.058
311.30 6.051
311.40 6.043
311.50 6.036
311.60 6.029
311.70 6.021
311.80 6.014
311.90 6.007
312.00 5.999
312.10 5.992
312.20 5.985
312.30 5.977
312.40 5.97
312.50 5.963
312.60 5.956
312.70 5.948
312.80 5.941
312.90 5.934
313.00 5.927
313.10 5.919
313.20 5.912
313.30 5.905
313.40 5.898
313.50 5.891
313.60 5.884
313.70 5.876
313.80 5.869
313.90 5.862
314.00 5.855
314.10 5.848
314.20 5.841
314.30 5.834
314.40 5.827
314.50 5.82
314.60 5.813
314.70 5.806
314.80 5.799
314.90 5.792
315.00 5.785
315.10 5.778
315.20 5.771
315.30 5.764
315.40 5.757
315.50 5.75
315.60 5.743
315.70 5.736
315.80 5.729
315.90 5.722
316.00 5.715
316.10 5.708
316.20 5.702
316.30 5.695
316.40 5.688
316.50 5.681
316.60 5.674
316.70 5.667
316.80 5.661
316.90 5.654
317.00 5.647
317.10 5.64
317.20 5.633
317.30 5.627
317.40 5.62
317.50 5.613
317.60 5.606
317.70 5.6
317.80 5.593
317.90 5.586
318.00 5.58
318.10 5.573
318.20 5.566
318.30 5.56
318.40 5.553
318.50 5.546
318.60 5.54
318.70 5.533
318.80 5.526
318.90 5.52
319.00 5.513
319.10 5.507
319.20 5.5
319.30 5.494
319.40 5.487
319.50 5.481
319.60 5.474
319.70 5.467
319.80 5.461
319.90 5.454
320.00 5.448
320.10 5.442
320.20 5.435
320.30 5.429
320.40 5.422
320.50 5.416
320.60 5.409
320.70 5.403
320.80 5.396
320.90 5.39
321.00 5.384
321.10 5.377
321.20 5.371
321.30 5.365
321.40 5.358
321.50 5.352
321.60 5.345
321.70 5.339
321.80 5.333
321.90 5.327
322.00 5.32
322.10 5.314
322.20 5.308
322.30 5.301
322.40 5.295
322.50 5.289
322.60 5.283
322.70 5.276
322.80 5.27
322.90 5.264
323.00 5.258
323.10 5.252
323.20 5.245
323.30 5.239
323.40 5.233
323.50 5.227
323.60 5.221
323.70 5.215
323.80 5.208
323.90 5.202
324.00 5.196
324.10 5.19
324.20 5.184
324.30 5.178
324.40 5.172
324.50 5.166
324.60 5.16
324.70 5.154
324.80 5.148
324.90 5.142
325.00 5.136
325.10 5.129
325.20 5.123
325.30 5.117
325.40 5.112
325.50 5.106
325.60 5.1
325.70 5.094
325.80 5.088
325.90 5.082
326.00 5.076
326.10 5.07
326.20 5.064
326.30 5.058
326.40 5.052
326.50 5.046
326.60 5.04
326.70 5.034
326.80 5.029
326.90 5.023
327.00 5.017
327.10 5.011
327.20 5.005
327.30 4.999
327.40 4.994
327.50 4.988
327.60 4.982
327.70 4.976
327.80 4.97
327.90 4.965
328.00 4.959
328.10 4.953
328.20 4.947
328.30 4.942
328.40 4.936
328.50 4.93
328.60 4.924
328.70 4.919
328.80 4.913
328.90 4.907
329.00 4.902
329.10 4.896
329.20 4.89
329.30 4.885
329.40 4.879
329.50 4.873
329.60 4.868
329.70 4.862
329.80 4.856
329.90 4.851
330.00 4.845
330.10 4.84
330.20 4.834
330.30 4.828
330.40 4.823
330.50 4.817
330.60 4.812
330.70 4.806
330.80 4.801
330.90 4.795
331.00 4.79
331.10 4.784
331.20 4.779
331.30 4.773
331.40 4.768
331.50 4.762
331.60 4.757
331.70 4.751
331.80 4.746
331.90 4.74
332.00 4.735
332.10 4.729
332.20 4.724
332.30 4.719
332.40 4.713
332.50 4.708
332.60 4.702
332.70 4.697
332.80 4.692
332.90 4.686
333.00 4.681
333.10 4.676
333.20 4.67
333.30 4.665
333.40 4.66
333.50 4.654
333.60 4.649
333.70 4.644
333.80 4.638
333.90 4.633
334.00 4.628
334.10 4.622
334.20 4.617
334.30 4.612
334.40 4.607
334.50 4.601
334.60 4.596
334.70 4.591
334.80 4.586
334.90 4.58
335.00 4.575
335.10 4.57
335.20 4.565
335.30 4.56
335.40 4.554
335.50 4.549
335.60 4.544
335.70 4.539
335.80 4.534
335.90 4.529
336.00 4.523
336.10 4.518
336.20 4.513
336.30 4.508
336.40 4.503
336.50 4.498
336.60 4.493
336.70 4.488
336.80 4.483
336.90 4.478
337.00 4.473
337.10 4.467
337.20 4.462
337.30 4.457
337.40 4.452
337.50 4.447
337.60 4.442
337.70 4.437
337.80 4.432
337.90 4.427
338.00 4.422
338.10 4.417
338.20 4.412
338.30 4.407
338.40 4.402
338.50 4.397
338.60 4.392
338.70 4.387
338.80 4.383
338.90 4.378
339.00 4.373
339.10 4.368
339.20 4.363
339.30 4.358
339.40 4.353
339.50 4.348
339.60 4.343
339.70 4.338
339.80 4.333
339.90 4.329
340.00 4.324
340.10 4.319
340.20 4.314
340.30 4.309
340.40 4.304
340.50 4.3
340.60 4.295
340.70 4.29
340.80 4.285
340.90 4.28
341.00 4.276
341.10 4.271
341.20 4.266
341.30 4.261
341.40 4.256
341.50 4.252
341.60 4.247
341.70 4.242
341.80 4.237
341.90 4.233
342.00 4.228
342.10 4.223
342.20 4.219
342.30 4.214
342.40 4.209
342.50 4.205
342.60 4.2
342.70 4.195
342.80 4.191
342.90 4.186
343.00 4.181
343.10 4.177
343.20 4.172
343.30 4.167
343.40 4.163
343.50 4.158
343.60 4.153
343.70 4.149
343.80 4.144
343.90 4.14
344.00 4.135
344.10 4.13
344.20 4.126
344.30 4.121
344.40 4.117
344.50 4.112
344.60 4.108
344.70 4.103
344.80 4.098
344.90 4.094
345.00 4.089
345.10 4.085
345.20 4.08
345.30 4.076
345.40 4.071
345.50 4.067
345.60 4.062
345.70 4.058
345.80 4.053
345.90 4.049
346.00 4.044
346.10 4.04
346.20 4.036
346.30 4.031
346.40 4.027
346.50 4.022
346.60 4.018
346.70 4.013
346.80 4.009
346.90 4.005
347.00 4
347.10 3.996
347.20 3.991
347.30 3.987
347.40 3.983
347.50 3.978
347.60 3.974
347.70 3.969
347.80 3.965
347.90 3.961
348.00 3.956
348.10 3.952
348.20 3.948
348.30 3.943
348.40 3.939
348.50 3.935
348.60 3.93
348.70 3.926
348.80 3.922
348.90 3.918
349.00 3.913
349.10 3.909
349.20 3.905
349.30 3.9
349.40 3.896
349.50 3.892
349.60 3.888
349.70 3.883
349.80 3.879
349.90 3.875
350.00 3.871
350.10 3.866
350.20 3.862
350.30 3.858
350.40 3.854
350.50 3.85
350.60 3.846
350.70 3.841
350.80 3.837
350.90 3.833
351.00 3.829
351.10 3.825
351.20 3.82
351.30 3.816
351.40 3.812
351.50 3.808
351.60 3.804
351.70 3.8
351.80 3.796
351.90 3.791
352.00 3.787
352.10 3.783
352.20 3.779
352.30 3.775
352.40 3.771
352.50 3.767
352.60 3.763
352.70 3.759
352.80 3.755
352.90 3.751
353.00 3.747
353.10 3.743
353.20 3.738
353.30 3.734
353.40 3.73
353.50 3.726
353.60 3.722
353.70 3.718
353.80 3.714
353.90 3.71
354.00 3.706
354.10 3.702
354.20 3.698
354.30 3.694
354.40 3.69
354.50 3.686
354.60 3.682
354.70 3.678
354.80 3.674
354.90 3.671
355.00 3.667
355.10 3.663
355.20 3.659
355.30 3.655
355.40 3.651
355.50 3.647
355.60 3.643
355.70 3.639
355.80 3.635
355.90 3.631
356.00 3.627
356.10 3.623
356.20 3.62
356.30 3.616
356.40 3.612
356.50 3.608
356.60 3.604
356.70 3.6
356.80 3.596
356.90 3.593
357.00 3.589
357.10 3.585
357.20 3.581
357.30 3.577
357.40 3.573
357.50 3.57
357.60 3.566
357.70 3.562
357.80 3.558
357.90 3.554
358.00 3.55
358.10 3.547
358.20 3.543
358.30 3.539
358.40 3.535
358.50 3.532
358.60 3.528
358.70 3.524
358.80 3.52
358.90 3.517
359.00 3.513
359.10 3.509
359.20 3.505
359.30 3.502
359.40 3.498
359.50 3.494
359.60 3.49
359.70 3.487
359.80 3.483
359.90 3.479
360.00 3.476
360.10 3.472
360.20 3.468
360.30 3.465
360.40 3.461
360.50 3.457
360.60 3.454
360.70 3.45
360.80 3.446
360.90 3.443
361.00 3.439
361.10 3.435
361.20 3.432
361.30 3.428
361.40 3.424
361.50 3.421
361.60 3.417
361.70 3.414
361.80 3.41
361.90 3.406
362.00 3.403
362.10 3.399
362.20 3.396
362.30 3.392
362.40 3.388
362.50 3.385
362.60 3.381
362.70 3.378
362.80 3.374
362.90 3.371
363.00 3.367
363.10 3.364
363.20 3.36
363.30 3.356
363.40 3.353
363.50 3.349
363.60 3.346
363.70 3.342
363.80 3.339
363.90 3.335
364.00 3.332
364.10 3.328
364.20 3.325
364.30 3.321
364.40 3.318
364.50 3.314
364.60 3.311
364.70 3.307
364.80 3.304
364.90 3.301
365.00 3.297
365.10 3.294
365.20 3.29
365.30 3.287
365.40 3.283
365.50 3.28
365.60 3.276
365.70 3.273
365.80 3.27
365.90 3.266
366.00 3.263
366.10 3.259
366.20 3.256
366.30 3.252
366.40 3.249
366.50 3.246
366.60 3.242
366.70 3.239
366.80 3.235
366.90 3.232
367.00 3.229
367.10 3.225
367.20 3.222
367.30 3.219
367.40 3.215
367.50 3.212
367.60 3.208
367.70 3.205
367.80 3.202
367.90 3.198
368.00 3.195
368.10 3.192
368.20 3.188
368.30 3.185
368.40 3.182
368.50 3.178
368.60 3.175
368.70 3.172
368.80 3.168
368.90 3.165
369.00 3.162
369.10 3.158
369.20 3.155
369.30 3.152
369.40 3.148
369.50 3.145
369.60 3.142
369.70 3.138
369.80 3.135
369.90 3.132
370.00 3.128
370.10 3.125
370.20 3.122
370.30 3.119
370.40 3.115
370.50 3.112
370.60 3.109
370.70 3.106
370.80 3.102
370.90 3.099
371.00 3.096
371.10 3.093
371.20 3.089
371.30 3.086
371.40 3.083
371.50 3.08
371.60 3.077
371.70 3.073
371.80 3.07
371.90 3.067
372.00 3.064
372.10 3.061
372.20 3.057
372.30 3.054
372.40 3.051
372.50 3.048
372.60 3.045
372.70 3.042
372.80 3.039
372.90 3.035
373.00 3.032
373.10 3.029
373.20 3.026
373.30 3.023
373.40 3.02
373.50 3.017
373.60 3.014
373.70 3.011
373.80 3.008
373.90 3.004
374.00 3.001
374.10 2.998
374.20 2.995
374.30 2.992
374.40 2.989
374.50 2.986
374.60 2.983
374.70 2.98
374.80 2.977
374.90 2.974
375.00 2.97
375.10 2.967
375.20 2.964
375.30 2.961
375.40 2.958
375.50 2.955
375.60 2.952
375.70 2.949
375.80 2.946
375.90 2.943
376.00 2.94
376.10 2.937
376.20 2.934
376.30 2.931
376.40 2.928
376.50 2.925
376.60 2.922
376.70 2.919
376.80 2.916
376.90 2.913
377.00 2.91
377.10 2.907
377.20 2.904
377.30 2.901
377.40 2.898
377.50 2.895
377.60 2.892
377.70 2.889
377.80 2.886
377.90 2.883
378.00 2.88
378.10 2.877
378.20 2.874
378.30 2.871
378.40 2.869
378.50 2.866
378.60 2.863
378.70 2.86
378.80 2.857
378.90 2.854
379.00 2.851
379.10 2.848
379.20 2.845
379.30 2.843
379.40 2.84
379.50 2.837
379.60 2.834
379.70 2.831
379.80 2.828
379.90 2.825
380.00 2.822
380.10 2.82
380.20 2.817
380.30 2.814
380.40 2.811
380.50 2.808
380.60 2.806
380.70 2.803
380.80 2.8
380.90 2.797
381.00 2.794
381.10 2.791
381.20 2.789
381.30 2.786
381.40 2.783
381.50 2.78
381.60 2.778
381.70 2.775
381.80 2.772
381.90 2.769
382.00 2.767
382.10 2.764
382.20 2.761
382.30 2.758
382.40 2.756
382.50 2.753
382.60 2.75
382.70 2.747
382.80 2.745
382.90 2.742
383.00 2.739
383.10 2.737
383.20 2.734
383.30 2.731
383.40 2.728
383.50 2.726
383.60 2.723
383.70 2.72
383.80 2.718
383.90 2.715
384.00 2.712
384.10 2.71
384.20 2.707
384.30 2.705
384.40 2.702
384.50 2.699
384.60 2.697
384.70 2.694
384.80 2.691
384.90 2.689
385.00 2.686
385.10 2.684
385.20 2.681
385.30 2.678
385.40 2.676
385.50 2.673
385.60 2.67
385.70 2.668
385.80 2.665
385.90 2.663
386.00 2.66
386.10 2.657
386.20 2.655
386.30 2.652
386.40 2.65
386.50 2.647
386.60 2.644
386.70 2.642
386.80 2.639
386.90 2.637
387.00 2.634
387.10 2.632
387.20 2.629
387.30 2.626
387.40 2.624
387.50 2.621
387.60 2.619
387.70 2.616
387.80 2.613
387.90 2.611
388.00 2.608
388.10 2.606
388.20 2.603
388.30 2.601
388.40 2.598
388.50 2.596
388.60 2.593
388.70 2.591
388.80 2.588
388.90 2.586
389.00 2.584
389.10 2.581
389.20 2.579
389.30 2.576
389.40 2.574
389.50 2.571
389.60 2.569
389.70 2.567
389.80 2.564
389.90 2.562
390.00 2.56
390.10 2.557
390.20 2.555
390.30 2.553
390.40 2.55
390.50 2.548
390.60 2.546
390.70 2.543
390.80 2.541
390.90 2.539
391.00 2.536
391.10 2.534
391.20 2.532
391.30 2.529
391.40 2.527
391.50 2.524
391.60 2.522
391.70 2.52
391.80 2.517
391.90 2.515
392.00 2.512
392.10 2.51
392.20 2.508
392.30 2.505
392.40 2.503
392.50 2.5
392.60 2.498
392.70 2.495
392.80 2.493
392.90 2.49
393.00 2.488
393.10 2.485
393.20 2.483
393.30 2.48
393.40 2.478
393.50 2.475
393.60 2.473
393.70 2.47
393.80 2.468
393.90 2.465
394.00 2.462
394.10 2.46
394.20 2.457
394.30 2.455
394.40 2.452
394.50 2.449
394.60 2.447
394.70 2.444
394.80 2.441
394.90 2.439
395.00 2.436
395.10 2.433
395.20 2.431
395.30 2.428
395.40 2.425
395.50 2.423
395.60 2.42
395.70 2.417
395.80 2.415
395.90 2.412
396.00 2.409
396.10 2.407
396.20 2.404
396.30 2.401
396.40 2.399
396.50 2.396
396.60 2.394
396.70 2.391
396.80 2.389
396.90 2.386
397.00 2.384
397.10 2.382
397.20 2.38
397.30 2.378
397.40 2.376
397.50 2.375
397.60 2.373
397.70 2.371
397.80 2.369
397.90 2.368
398.00 2.366
398.10 2.364
398.20 2.362
398.30 2.361
398.40 2.359
398.50 2.357
398.60 2.356
398.70 2.354
398.80 2.352
398.90 2.351
399.00 2.349
399.10 2.347
399.20 2.345
399.30 2.344
399.40 2.342
399.50 2.34
399.60 2.338
399.70 2.337
399.80 2.335
399.90 2.333
400.00 2.331
400.10 2.33
400.20 2.328
400.30 2.326
400.40 2.324
400.50 2.322
400.60 2.32
400.70 2.318
400.80 2.316
400.90 2.315
401.00 2.313
401.10 2.311
401.20 2.309
401.30 2.307
401.40 2.305
401.50 2.303
401.60 2.301
401.70 2.299
401.80 2.297
401.90 2.295
402.00 2.293
402.10 2.291
402.20 2.288
402.30 2.286
402.40 2.284
402.50 2.282
402.60 2.28
402.70 2.278
402.80 2.276
402.90 2.274
403.00 2.271
403.10 2.269
403.20 2.267
403.30 2.265
403.40 2.262
403.50 2.26
403.60 2.258
403.70 2.256
403.80 2.253
403.90 2.251
404.00 2.249
404.10 2.246
404.20 2.244
404.30 2.241
404.40 2.239
404.50 2.237
404.60 2.234
404.70 2.232
404.80 2.229
404.90 2.227
405.00 2.224
405.10 2.222
405.20 2.219
405.30 2.216
405.40 2.214
405.50 2.211
405.60 2.209
405.70 2.206
405.80 2.203
405.90 2.201
406.00 2.198
406.10 2.195
406.20 2.192
406.30 2.189
406.40 2.187
406.50 2.184
406.60 2.181
406.70 2.178
406.80 2.175
406.90 2.172
407.00 2.169
407.10 2.166
407.20 2.163
407.30 2.16
407.40 2.157
407.50 2.154
407.60 2.151
407.70 2.148
407.80 2.145
407.90 2.141
408.00 2.138
408.10 2.135
408.20 2.132
408.30 2.128
408.40 2.125
408.50 2.122
408.60 2.119
408.70 2.115
408.80 2.112
408.90 2.109
409.00 2.106
409.10 2.102
409.20 2.099
409.30 2.096
409.40 2.093
409.50 2.091
409.60 2.088
409.70 2.086
409.80 2.084
409.90 2.082
410.00 2.081
410.10 2.08
410.20 2.078
410.30 2.076
410.40 2.073
410.50 2.07
410.60 2.069
410.70 2.067
410.80 2.066
410.90 2.065
411.00 2.064
411.10 2.063
411.20 2.063
411.30 2.062
411.40 2.061
411.50 2.061
411.60 2.06
411.70 2.06
411.80 2.059
411.90 2.059
412.00 2.058
412.10 2.058
412.20 2.057
412.30 2.056
412.40 2.056
412.50 2.055
412.60 2.054
412.70 2.054
412.80 2.053
412.90 2.052
413.00 2.052
413.10 2.051
413.20 2.05
413.30 2.049
413.40 2.048
413.50 2.047
413.60 2.046
413.70 2.045
413.80 2.044
413.90 2.043
414.00 2.042
414.10 2.041
414.20 2.04
414.30 2.039
414.40 2.038
414.50 2.037
414.60 2.036
414.70 2.035
414.80 2.034
414.90 2.032
415.00 2.031
415.10 2.03
415.20 2.029
415.30 2.027
415.40 2.026
415.50 2.025
415.60 2.023
415.70 2.022
415.80 2.021
415.90 2.019
416.00 2.018
416.10 2.017
416.20 2.015
416.30 2.014
416.40 2.012
416.50 2.011
416.60 2.009
416.70 2.008
416.80 2.006
416.90 2.005
417.00 2.003
417.10 2.002
417.20 2
417.30 1.999
417.40 1.997
417.50 1.996
417.60 1.994
417.70 1.993
417.80 1.991
417.90 1.989
418.00 1.988
418.10 1.986
418.20 1.985
418.30 1.983
418.40 1.981
418.50 1.98
418.60 1.978
418.70 1.977
418.80 1.975
418.90 1.973
419.00 1.972
419.10 1.97
419.20 1.968
419.30 1.967
419.40 1.965
419.50 1.963
419.60 1.962
419.70 1.96
419.80 1.958
419.90 1.957
420.00 1.955
420.10 1.953
420.20 1.951
420.30 1.95
420.40 1.948
420.50 1.946
420.60 1.945
420.70 1.943
420.80 1.941
420.90 1.939
421.00 1.938
421.10 1.936
421.20 1.934
421.30 1.933
421.40 1.931
421.50 1.929
421.60 1.927
421.70 1.926
421.80 1.924
421.90 1.922
422.00 1.92
422.10 1.919
422.20 1.917
422.30 1.915
422.40 1.913
422.50 1.911
422.60 1.91
422.70 1.908
422.80 1.906
422.90 1.904
423.00 1.903
423.10 1.901
423.20 1.899
423.30 1.897
423.40 1.895
423.50 1.894
423.60 1.892
423.70 1.89
423.80 1.888
423.90 1.886
424.00 1.884
424.10 1.883
424.20 1.881
424.30 1.879
424.40 1.877
424.50 1.875
424.60 1.873
424.70 1.871
424.80 1.87
424.90 1.868
425.00 1.866
425.10 1.864
425.20 1.862
425.30 1.86
425.40 1.858
425.50 1.856
425.60 1.854
425.70 1.853
425.80 1.851
425.90 1.849
426.00 1.847
426.10 1.845
426.20 1.843
426.30 1.841
426.40 1.839
426.50 1.837
426.60 1.835
426.70 1.833
426.80 1.831
426.90 1.829
427.00 1.827
427.10 1.825
427.20 1.823
427.30 1.82
427.40 1.818
427.50 1.816
427.60 1.814
427.70 1.812
427.80 1.81
427.90 1.808
428.00 1.805
428.10 1.803
428.20 1.801
428.30 1.799
428.40 1.796
428.50 1.794
428.60 1.792
428.70 1.789
428.80 1.787
428.90 1.785
429.00 1.782
429.10 1.78
429.20 1.777
429.30 1.775
429.40 1.772
429.50 1.77
429.60 1.767
429.70 1.764
429.80 1.762
429.90 1.759
430.00 1.756
430.10 1.753
430.20 1.751
430.30 1.748
430.40 1.745
430.50 1.742
430.60 1.739
430.70 1.736
430.80 1.733
430.90 1.73
431.00 1.727
431.10 1.723
431.20 1.72
431.30 1.717
431.40 1.714
431.50 1.71
431.60 1.707
431.70 1.703
431.80 1.7
431.90 1.696
432.00 1.693
432.10 1.689
432.20 1.686
432.30 1.682
432.40 1.678
432.50 1.674
432.60 1.671
432.70 1.667
432.80 1.663
432.90 1.66
433.00 1.656
433.10 1.652
433.20 1.649
433.30 1.645
433.40 1.641
433.50 1.638
433.60 1.634
433.70 1.63
433.80 1.626
433.90 1.621
434.00 1.618
434.10 1.617
434.20 1.617
434.30 1.619
434.40 1.621
434.50 1.622
434.60 1.623
434.70 1.624
434.80 1.624
434.90 1.625
435.00 1.626
435.10 1.627
435.20 1.628
435.30 1.628
435.40 1.629
435.50 1.63
435.60 1.631
435.70 1.632
435.80 1.632
435.90 1.633
436.00 1.634
436.10 1.634
436.20 1.635
436.30 1.635
436.40 1.636
436.50 1.636
436.60 1.637
436.70 1.637
436.80 1.638
436.90 1.638
437.00 1.638
437.10 1.638
437.20 1.638
437.30 1.638
437.40 1.638
437.50 1.638
437.60 1.638
437.70 1.638
437.80 1.638
437.90 1.638
438.00 1.637
438.10 1.637
438.20 1.637
438.30 1.636
438.40 1.636
438.50 1.636
438.60 1.635
438.70 1.635
438.80 1.634
438.90 1.634
439.00 1.633
439.10 1.632
439.20 1.632
439.30 1.631
439.40 1.63
439.50 1.629
439.60 1.629
439.70 1.628
439.80 1.627
439.90 1.626
440.00 1.625
440.10 1.625
440.20 1.624
440.30 1.623
440.40 1.622
440.50 1.621
440.60 1.62
440.70 1.619
440.80 1.618
440.90 1.617
441.00 1.616
441.10 1.615
441.20 1.614
441.30 1.613
441.40 1.612
441.50 1.611
441.60 1.61
441.70 1.608
441.80 1.607
441.90 1.606
442.00 1.605
442.10 1.604
442.20 1.603
442.30 1.602
442.40 1.601
442.50 1.599
442.60 1.598
442.70 1.597
442.80 1.596
442.90 1.595
443.00 1.594
443.10 1.592
443.20 1.591
443.30 1.59
443.40 1.589
443.50 1.587
443.60 1.586
443.70 1.585
443.80 1.584
443.90 1.583
444.00 1.581
444.10 1.58
444.20 1.579
444.30 1.578
444.40 1.576
444.50 1.575
444.60 1.574
444.70 1.573
444.80 1.571
444.90 1.57
445.00 1.569
445.10 1.568
445.20 1.566
445.30 1.565
445.40 1.564
445.50 1.563
445.60 1.561
445.70 1.56
445.80 1.559
445.90 1.558
446.00 1.556
446.10 1.555
446.20 1.554
446.30 1.552
446.40 1.551
446.50 1.55
446.60 1.549
446.70 1.547
446.80 1.546
446.90 1.545
447.00 1.543
447.10 1.542
447.20 1.541
447.30 1.54
447.40 1.538
447.50 1.537
447.60 1.536
447.70 1.535
447.80 1.533
447.90 1.532
448.00 1.531
448.10 1.529
448.20 1.528
448.30 1.527
448.40 1.526
448.50 1.524
448.60 1.523
448.70 1.522
448.80 1.52
448.90 1.519
449.00 1.518
449.10 1.517
449.20 1.515
449.30 1.514
449.40 1.513
449.50 1.512
449.60 1.51
449.70 1.509
449.80 1.508
449.90 1.506
450.00 1.505
450.10 1.504
450.20 1.503
450.30 1.501
450.40 1.5
450.50 1.499
450.60 1.498
450.70 1.496
450.80 1.495
450.90 1.494
451.00 1.493
451.10 1.491
451.20 1.49
451.30 1.489
451.40 1.488
451.50 1.486
451.60 1.485
451.70 1.484
451.80 1.482
451.90 1.481
452.00 1.48
452.10 1.479
452.20 1.477
452.30 1.476
452.40 1.475
452.50 1.474
452.60 1.472
452.70 1.471
452.80 1.47
452.90 1.469
453.00 1.468
453.10 1.466
453.20 1.465
453.30 1.464
453.40 1.463
453.50 1.461
453.60 1.46
453.70 1.459
453.80 1.458
453.90 1.456
454.00 1.455
454.10 1.454
