# Version 2.1 - nm, norm@500 to 1, cut digits, bergeron_55000_65.dat_55000
# Wavelength(nm)  Flambda(ergs/cm^s/s/nm)
300.00 6.288
300.10 6.28
300.20 6.272
300.30 6.265
300.40 6.257
300.50 6.25
300.60 6.242
300.70 6.235
300.80 6.227
300.90 6.219
301.00 6.212
301.10 6.204
301.20 6.197
301.30 6.189
301.40 6.182
301.50 6.175
301.60 6.167
301.70 6.16
301.80 6.152
301.90 6.145
302.00 6.137
302.10 6.13
302.20 6.123
302.30 6.115
302.40 6.108
302.50 6.101
302.60 6.093
302.70 6.086
302.80 6.079
302.90 6.071
303.00 6.064
303.10 6.057
303.20 6.049
303.30 6.042
303.40 6.035
303.50 6.028
303.60 6.02
303.70 6.013
303.80 6.006
303.90 5.999
304.00 5.992
304.10 5.984
304.20 5.977
304.30 5.97
304.40 5.963
304.50 5.956
304.60 5.949
304.70 5.942
304.80 5.935
304.90 5.927
305.00 5.92
305.10 5.913
305.20 5.906
305.30 5.899
305.40 5.892
305.50 5.885
305.60 5.878
305.70 5.871
305.80 5.864
305.90 5.857
306.00 5.85
306.10 5.843
306.20 5.836
306.30 5.829
306.40 5.822
306.50 5.815
306.60 5.808
306.70 5.802
306.80 5.795
306.90 5.788
307.00 5.781
307.10 5.774
307.20 5.767
307.30 5.76
307.40 5.754
307.50 5.747
307.60 5.74
307.70 5.733
307.80 5.726
307.90 5.72
308.00 5.713
308.10 5.706
308.20 5.699
308.30 5.693
308.40 5.686
308.50 5.679
308.60 5.672
308.70 5.666
308.80 5.659
308.90 5.652
309.00 5.646
309.10 5.639
309.20 5.632
309.30 5.626
309.40 5.619
309.50 5.612
309.60 5.606
309.70 5.599
309.80 5.593
309.90 5.586
310.00 5.58
310.10 5.573
310.20 5.566
310.30 5.56
310.40 5.553
310.50 5.547
310.60 5.54
310.70 5.534
310.80 5.527
310.90 5.521
311.00 5.514
311.10 5.508
311.20 5.501
311.30 5.495
311.40 5.489
311.50 5.482
311.60 5.476
311.70 5.469
311.80 5.463
311.90 5.456
312.00 5.45
312.10 5.444
312.20 5.437
312.30 5.431
312.40 5.425
312.50 5.418
312.60 5.412
312.70 5.406
312.80 5.399
312.90 5.393
313.00 5.387
313.10 5.38
313.20 5.374
313.30 5.368
313.40 5.362
313.50 5.355
313.60 5.349
313.70 5.343
313.80 5.337
313.90 5.331
314.00 5.324
314.10 5.318
314.20 5.312
314.30 5.306
314.40 5.3
314.50 5.294
314.60 5.287
314.70 5.281
314.80 5.275
314.90 5.269
315.00 5.263
315.10 5.257
315.20 5.251
315.30 5.245
315.40 5.239
315.50 5.233
315.60 5.226
315.70 5.22
315.80 5.214
315.90 5.208
316.00 5.202
316.10 5.196
316.20 5.19
316.30 5.184
316.40 5.178
316.50 5.172
316.60 5.166
316.70 5.16
316.80 5.154
316.90 5.149
317.00 5.143
317.10 5.137
317.20 5.131
317.30 5.125
317.40 5.119
317.50 5.113
317.60 5.107
317.70 5.101
317.80 5.095
317.90 5.09
318.00 5.084
318.10 5.078
318.20 5.072
318.30 5.066
318.40 5.06
318.50 5.055
318.60 5.049
318.70 5.043
318.80 5.037
318.90 5.031
319.00 5.026
319.10 5.02
319.20 5.014
319.30 5.008
319.40 5.003
319.50 4.997
319.60 4.991
319.70 4.986
319.80 4.98
319.90 4.974
320.00 4.968
320.10 4.963
320.20 4.957
320.30 4.952
320.40 4.946
320.50 4.94
320.60 4.935
320.70 4.929
320.80 4.923
320.90 4.918
321.00 4.912
321.10 4.907
321.20 4.901
321.30 4.895
321.40 4.89
321.50 4.884
321.60 4.879
321.70 4.873
321.80 4.868
321.90 4.862
322.00 4.857
322.10 4.851
322.20 4.846
322.30 4.84
322.40 4.835
322.50 4.829
322.60 4.824
322.70 4.818
322.80 4.813
322.90 4.807
323.00 4.802
323.10 4.796
323.20 4.791
323.30 4.785
323.40 4.78
323.50 4.775
323.60 4.769
323.70 4.764
323.80 4.758
323.90 4.753
324.00 4.748
324.10 4.742
324.20 4.737
324.30 4.732
324.40 4.726
324.50 4.721
324.60 4.716
324.70 4.71
324.80 4.705
324.90 4.7
325.00 4.694
325.10 4.689
325.20 4.684
325.30 4.679
325.40 4.673
325.50 4.668
325.60 4.663
325.70 4.658
325.80 4.652
325.90 4.647
326.00 4.642
326.10 4.637
326.20 4.632
326.30 4.626
326.40 4.621
326.50 4.616
326.60 4.611
326.70 4.606
326.80 4.6
326.90 4.595
327.00 4.59
327.10 4.585
327.20 4.58
327.30 4.575
327.40 4.57
327.50 4.565
327.60 4.559
327.70 4.554
327.80 4.549
327.90 4.544
328.00 4.539
328.10 4.534
328.20 4.529
328.30 4.524
328.40 4.519
328.50 4.514
328.60 4.509
328.70 4.504
328.80 4.499
328.90 4.494
329.00 4.489
329.10 4.484
329.20 4.479
329.30 4.474
329.40 4.469
329.50 4.464
329.60 4.459
329.70 4.454
329.80 4.449
329.90 4.444
330.00 4.439
330.10 4.434
330.20 4.429
330.30 4.424
330.40 4.42
330.50 4.415
330.60 4.41
330.70 4.405
330.80 4.4
330.90 4.395
331.00 4.39
331.10 4.385
331.20 4.381
331.30 4.376
331.40 4.371
331.50 4.366
331.60 4.361
331.70 4.356
331.80 4.352
331.90 4.347
332.00 4.342
332.10 4.337
332.20 4.332
332.30 4.328
332.40 4.323
332.50 4.318
332.60 4.313
332.70 4.309
332.80 4.304
332.90 4.299
333.00 4.294
333.10 4.29
333.20 4.285
333.30 4.28
333.40 4.275
333.50 4.271
333.60 4.266
333.70 4.261
333.80 4.257
333.90 4.252
334.00 4.247
334.10 4.243
334.20 4.238
334.30 4.233
334.40 4.229
334.50 4.224
334.60 4.219
334.70 4.215
334.80 4.21
334.90 4.206
335.00 4.201
335.10 4.196
335.20 4.192
335.30 4.187
335.40 4.183
335.50 4.178
335.60 4.173
335.70 4.169
335.80 4.164
335.90 4.16
336.00 4.155
336.10 4.151
336.20 4.146
336.30 4.142
336.40 4.137
336.50 4.133
336.60 4.128
336.70 4.124
336.80 4.119
336.90 4.115
337.00 4.11
337.10 4.106
337.20 4.101
337.30 4.097
337.40 4.092
337.50 4.088
337.60 4.083
337.70 4.079
337.80 4.075
337.90 4.07
338.00 4.066
338.10 4.061
338.20 4.057
338.30 4.052
338.40 4.048
338.50 4.044
338.60 4.039
338.70 4.035
338.80 4.031
338.90 4.026
339.00 4.022
339.10 4.018
339.20 4.013
339.30 4.009
339.40 4.004
339.50 4
339.60 3.996
339.70 3.991
339.80 3.987
339.90 3.983
340.00 3.979
340.10 3.974
340.20 3.97
340.30 3.966
340.40 3.961
340.50 3.957
340.60 3.953
340.70 3.949
340.80 3.944
340.90 3.94
341.00 3.936
341.10 3.932
341.20 3.927
341.30 3.923
341.40 3.919
341.50 3.915
341.60 3.911
341.70 3.906
341.80 3.902
341.90 3.898
342.00 3.894
342.10 3.89
342.20 3.885
342.30 3.881
342.40 3.877
342.50 3.873
342.60 3.869
342.70 3.865
342.80 3.86
342.90 3.856
343.00 3.852
343.10 3.848
343.20 3.844
343.30 3.84
343.40 3.836
343.50 3.832
343.60 3.828
343.70 3.823
343.80 3.819
343.90 3.815
344.00 3.811
344.10 3.807
344.20 3.803
344.30 3.799
344.40 3.795
344.50 3.791
344.60 3.787
344.70 3.783
344.80 3.779
344.90 3.775
345.00 3.771
345.10 3.767
345.20 3.763
345.30 3.759
345.40 3.755
345.50 3.751
345.60 3.747
345.70 3.743
345.80 3.739
345.90 3.735
346.00 3.731
346.10 3.727
346.20 3.723
346.30 3.719
346.40 3.715
346.50 3.711
346.60 3.707
346.70 3.703
346.80 3.699
346.90 3.695
347.00 3.691
347.10 3.688
347.20 3.684
347.30 3.68
347.40 3.676
347.50 3.672
347.60 3.668
347.70 3.664
347.80 3.66
347.90 3.656
348.00 3.653
348.10 3.649
348.20 3.645
348.30 3.641
348.40 3.637
348.50 3.633
348.60 3.629
348.70 3.626
348.80 3.622
348.90 3.618
349.00 3.614
349.10 3.61
349.20 3.607
349.30 3.603
349.40 3.599
349.50 3.595
349.60 3.591
349.70 3.588
349.80 3.584
349.90 3.58
350.00 3.576
350.10 3.573
350.20 3.569
350.30 3.565
350.40 3.561
350.50 3.558
350.60 3.554
350.70 3.55
350.80 3.546
350.90 3.543
351.00 3.539
351.10 3.535
351.20 3.532
351.30 3.528
351.40 3.524
351.50 3.52
351.60 3.517
351.70 3.513
351.80 3.509
351.90 3.506
352.00 3.502
352.10 3.498
352.20 3.495
352.30 3.491
352.40 3.487
352.50 3.484
352.60 3.48
352.70 3.477
352.80 3.473
352.90 3.469
353.00 3.466
353.10 3.462
353.20 3.458
353.30 3.455
353.40 3.451
353.50 3.448
353.60 3.444
353.70 3.44
353.80 3.437
353.90 3.433
354.00 3.43
354.10 3.426
354.20 3.423
354.30 3.419
354.40 3.416
354.50 3.412
354.60 3.408
354.70 3.405
354.80 3.401
354.90 3.398
355.00 3.394
355.10 3.391
355.20 3.387
355.30 3.384
355.40 3.38
355.50 3.377
355.60 3.373
355.70 3.37
355.80 3.366
355.90 3.363
356.00 3.359
356.10 3.356
356.20 3.352
356.30 3.349
356.40 3.345
356.50 3.342
356.60 3.339
356.70 3.335
356.80 3.332
356.90 3.328
357.00 3.325
357.10 3.321
357.20 3.318
357.30 3.315
357.40 3.311
357.50 3.308
357.60 3.304
357.70 3.301
357.80 3.297
357.90 3.294
358.00 3.291
358.10 3.287
358.20 3.284
358.30 3.281
358.40 3.277
358.50 3.274
358.60 3.27
358.70 3.267
358.80 3.264
358.90 3.26
359.00 3.257
359.10 3.254
359.20 3.25
359.30 3.247
359.40 3.244
359.50 3.24
359.60 3.237
359.70 3.234
359.80 3.23
359.90 3.227
360.00 3.224
360.10 3.22
360.20 3.217
360.30 3.214
360.40 3.211
360.50 3.207
360.60 3.204
360.70 3.201
360.80 3.197
360.90 3.194
361.00 3.191
361.10 3.188
361.20 3.184
361.30 3.181
361.40 3.178
361.50 3.175
361.60 3.171
361.70 3.168
361.80 3.165
361.90 3.162
362.00 3.159
362.10 3.155
362.20 3.152
362.30 3.149
362.40 3.146
362.50 3.142
362.60 3.139
362.70 3.136
362.80 3.133
362.90 3.13
363.00 3.127
363.10 3.123
363.20 3.12
363.30 3.117
363.40 3.114
363.50 3.111
363.60 3.108
363.70 3.104
363.80 3.101
363.90 3.098
364.00 3.095
364.10 3.092
364.20 3.089
364.30 3.086
364.40 3.082
364.50 3.079
364.60 3.076
364.70 3.073
364.80 3.07
364.90 3.067
365.00 3.064
365.10 3.061
365.20 3.058
365.30 3.055
365.40 3.051
365.50 3.048
365.60 3.045
365.70 3.042
365.80 3.039
365.90 3.036
366.00 3.033
366.10 3.03
366.20 3.027
366.30 3.023
366.40 3.02
366.50 3.017
366.60 3.014
366.70 3.011
366.80 3.008
366.90 3.004
367.00 3.001
367.10 2.998
367.20 2.995
367.30 2.992
367.40 2.989
367.50 2.986
367.60 2.982
367.70 2.979
367.80 2.976
367.90 2.973
368.00 2.97
368.10 2.967
368.20 2.964
368.30 2.961
368.40 2.958
368.50 2.954
368.60 2.951
368.70 2.948
368.80 2.945
368.90 2.942
369.00 2.939
369.10 2.936
369.20 2.933
369.30 2.93
369.40 2.927
369.50 2.924
369.60 2.921
369.70 2.918
369.80 2.915
369.90 2.912
370.00 2.909
370.10 2.906
370.20 2.903
370.30 2.9
370.40 2.897
370.50 2.894
370.60 2.891
370.70 2.888
370.80 2.885
370.90 2.882
371.00 2.879
371.10 2.876
371.20 2.873
371.30 2.87
371.40 2.867
371.50 2.864
371.60 2.862
371.70 2.859
371.80 2.856
371.90 2.853
372.00 2.85
372.10 2.847
372.20 2.844
372.30 2.842
372.40 2.839
372.50 2.836
372.60 2.834
372.70 2.831
372.80 2.828
372.90 2.826
373.00 2.823
373.10 2.82
373.20 2.818
373.30 2.815
373.40 2.812
373.50 2.81
373.60 2.807
373.70 2.804
373.80 2.802
373.90 2.799
374.00 2.796
374.10 2.794
374.20 2.791
374.30 2.789
374.40 2.786
374.50 2.784
374.60 2.782
374.70 2.779
374.80 2.777
374.90 2.774
375.00 2.772
375.10 2.769
375.20 2.767
375.30 2.764
375.40 2.762
375.50 2.759
375.60 2.757
375.70 2.755
375.80 2.752
375.90 2.75
376.00 2.747
376.10 2.744
376.20 2.741
376.30 2.738
376.40 2.734
376.50 2.731
376.60 2.728
376.70 2.725
376.80 2.721
376.90 2.718
377.00 2.715
377.10 2.714
377.20 2.712
377.30 2.711
377.40 2.71
377.50 2.709
377.60 2.707
377.70 2.706
377.80 2.705
377.90 2.704
378.00 2.703
378.10 2.699
378.20 2.696
378.30 2.693
378.40 2.689
378.50 2.686
378.60 2.683
378.70 2.679
378.80 2.676
378.90 2.673
379.00 2.67
379.10 2.666
379.20 2.662
379.30 2.658
379.40 2.654
379.50 2.65
379.60 2.646
379.70 2.643
379.80 2.639
379.90 2.635
380.00 2.631
380.10 2.632
380.20 2.633
380.30 2.634
380.40 2.635
380.50 2.635
380.60 2.636
380.70 2.637
380.80 2.638
380.90 2.639
381.00 2.64
381.10 2.638
381.20 2.637
381.30 2.635
381.40 2.633
381.50 2.632
381.60 2.629
381.70 2.625
381.80 2.622
381.90 2.617
382.00 2.613
382.10 2.607
382.20 2.602
382.30 2.593
382.40 2.585
382.50 2.576
382.60 2.568
382.70 2.56
382.80 2.551
382.90 2.543
383.00 2.534
383.10 2.526
383.20 2.518
383.30 2.507
383.40 2.497
383.50 2.489
383.60 2.488
383.70 2.493
383.80 2.5
383.90 2.507
384.00 2.513
384.10 2.519
384.20 2.525
384.30 2.531
384.40 2.536
384.50 2.54
384.60 2.545
384.70 2.548
384.80 2.551
384.90 2.554
385.00 2.556
385.10 2.558
385.20 2.56
385.30 2.561
385.40 2.561
385.50 2.561
385.60 2.561
385.70 2.56
385.80 2.559
385.90 2.558
386.00 2.556
386.10 2.554
386.20 2.551
386.30 2.548
386.40 2.545
386.50 2.541
386.60 2.536
386.70 2.532
386.80 2.526
386.90 2.52
387.00 2.514
387.10 2.507
387.20 2.5
387.30 2.491
387.40 2.483
387.50 2.473
387.60 2.463
387.70 2.452
387.80 2.44
387.90 2.428
388.00 2.415
388.10 2.401
388.20 2.386
388.30 2.37
388.40 2.354
388.50 2.337
388.60 2.319
388.70 2.302
388.80 2.289
388.90 2.28
389.00 2.284
389.10 2.293
389.20 2.306
389.30 2.319
389.40 2.332
389.50 2.345
389.60 2.356
389.70 2.367
389.80 2.378
389.90 2.387
390.00 2.395
390.10 2.403
390.20 2.41
390.30 2.417
390.40 2.422
390.50 2.427
390.60 2.432
390.70 2.436
390.80 2.44
390.90 2.443
391.00 2.445
391.10 2.447
391.20 2.449
391.30 2.451
391.40 2.452
391.50 2.453
391.60 2.453
391.70 2.453
391.80 2.453
391.90 2.453
392.00 2.452
392.10 2.452
392.20 2.451
392.30 2.45
392.40 2.448
392.50 2.447
392.60 2.445
392.70 2.443
392.80 2.441
392.90 2.439
393.00 2.437
393.10 2.434
393.20 2.432
393.30 2.429
393.40 2.426
393.50 2.423
393.60 2.419
393.70 2.416
393.80 2.412
393.90 2.408
394.00 2.403
394.10 2.399
394.20 2.394
394.30 2.389
394.40 2.383
394.50 2.377
394.60 2.371
394.70 2.364
394.80 2.357
394.90 2.35
395.00 2.342
395.10 2.333
395.20 2.324
395.30 2.314
395.40 2.303
395.50 2.292
395.60 2.279
395.70 2.266
395.80 2.252
395.90 2.237
396.00 2.22
396.10 2.203
396.20 2.184
396.30 2.165
396.40 2.144
396.50 2.122
396.60 2.099
396.70 2.074
396.80 2.048
396.90 2.022
397.00 1.996
397.10 2.016
397.20 2.037
397.30 2.06
397.40 2.081
397.50 2.1
397.60 2.119
397.70 2.136
397.80 2.152
397.90 2.167
398.00 2.18
398.10 2.192
398.20 2.203
398.30 2.213
398.40 2.222
398.50 2.231
398.60 2.238
398.70 2.244
398.80 2.25
398.90 2.255
399.00 2.26
399.10 2.264
399.20 2.267
399.30 2.27
399.40 2.273
399.50 2.275
399.60 2.277
399.70 2.279
399.80 2.28
399.90 2.281
400.00 2.281
400.10 2.282
400.20 2.282
400.30 2.282
400.40 2.282
400.50 2.282
400.60 2.281
400.70 2.281
400.80 2.28
400.90 2.279
401.00 2.278
401.10 2.277
401.20 2.276
401.30 2.275
401.40 2.274
401.50 2.272
401.60 2.271
401.70 2.27
401.80 2.268
401.90 2.267
402.00 2.265
402.10 2.263
402.20 2.262
402.30 2.26
402.40 2.258
402.50 2.256
402.60 2.255
402.70 2.253
402.80 2.251
402.90 2.249
403.00 2.247
403.10 2.245
403.20 2.243
403.30 2.241
403.40 2.239
403.50 2.237
403.60 2.235
403.70 2.233
403.80 2.231
403.90 2.229
404.00 2.227
404.10 2.224
404.20 2.222
404.30 2.22
404.40 2.218
404.50 2.215
404.60 2.213
404.70 2.211
404.80 2.208
404.90 2.206
405.00 2.203
405.10 2.201
405.20 2.198
405.30 2.196
405.40 2.193
405.50 2.191
405.60 2.188
405.70 2.185
405.80 2.182
405.90 2.179
406.00 2.176
406.10 2.173
406.20 2.17
406.30 2.167
406.40 2.163
406.50 2.16
406.60 2.156
406.70 2.153
406.80 2.149
406.90 2.145
407.00 2.141
407.10 2.136
407.20 2.132
407.30 2.127
407.40 2.122
407.50 2.116
407.60 2.111
407.70 2.105
407.80 2.098
407.90 2.091
408.00 2.084
408.10 2.077
408.20 2.068
408.30 2.059
408.40 2.05
408.50 2.039
408.60 2.028
408.70 2.016
408.80 2.003
408.90 1.989
409.00 1.974
409.10 1.958
409.20 1.941
409.30 1.922
409.40 1.902
409.50 1.88
409.60 1.857
409.70 1.832
409.80 1.805
409.90 1.777
410.00 1.742
410.10 1.717
410.20 1.701
410.30 1.727
410.40 1.754
410.50 1.783
410.60 1.807
410.70 1.829
410.80 1.85
410.90 1.868
411.00 1.886
411.10 1.902
411.20 1.916
411.30 1.929
411.40 1.941
411.50 1.951
411.60 1.961
411.70 1.97
411.80 1.977
411.90 1.984
412.00 1.99
412.10 1.995
412.20 2
412.30 2.004
412.40 2.008
412.50 2.011
412.60 2.013
412.70 2.016
412.80 2.017
412.90 2.019
413.00 2.02
413.10 2.021
413.20 2.022
413.30 2.023
413.40 2.023
413.50 2.023
413.60 2.023
413.70 2.023
413.80 2.023
413.90 2.022
414.00 2.022
414.10 2.021
414.20 2.021
414.30 2.02
414.40 2.019
414.50 2.018
414.60 2.017
414.70 2.016
414.80 2.015
414.90 2.014
415.00 2.013
415.10 2.012
415.20 2.01
415.30 2.009
415.40 2.008
415.50 2.006
415.60 2.005
415.70 2.004
415.80 2.002
415.90 2.001
416.00 1.999
416.10 1.998
416.20 1.996
416.30 1.995
416.40 1.993
416.50 1.992
416.60 1.99
416.70 1.988
416.80 1.987
416.90 1.985
417.00 1.984
417.10 1.982
417.20 1.98
417.30 1.979
417.40 1.977
417.50 1.976
417.60 1.974
417.70 1.972
417.80 1.971
417.90 1.969
418.00 1.967
418.10 1.966
418.20 1.964
418.30 1.962
418.40 1.961
418.50 1.959
418.60 1.957
418.70 1.956
418.80 1.954
418.90 1.952
419.00 1.951
419.10 1.949
419.20 1.947
419.30 1.945
419.40 1.944
419.50 1.942
419.60 1.94
419.70 1.939
419.80 1.937
419.90 1.935
420.00 1.934
420.10 1.932
420.20 1.93
420.30 1.929
420.40 1.927
420.50 1.925
420.60 1.923
420.70 1.922
420.80 1.92
420.90 1.918
421.00 1.917
421.10 1.915
421.20 1.913
421.30 1.912
421.40 1.91
421.50 1.908
421.60 1.906
421.70 1.905
421.80 1.903
421.90 1.901
422.00 1.9
422.10 1.898
422.20 1.896
422.30 1.895
422.40 1.893
422.50 1.891
422.60 1.889
422.70 1.888
422.80 1.886
422.90 1.884
423.00 1.883
423.10 1.881
423.20 1.879
423.30 1.878
423.40 1.876
423.50 1.874
423.60 1.873
423.70 1.871
423.80 1.869
423.90 1.867
424.00 1.866
424.10 1.864
424.20 1.862
424.30 1.861
424.40 1.859
424.50 1.857
424.60 1.856
424.70 1.854
424.80 1.852
424.90 1.85
425.00 1.849
425.10 1.847
425.20 1.845
425.30 1.844
425.40 1.842
425.50 1.84
425.60 1.839
425.70 1.837
425.80 1.835
425.90 1.833
426.00 1.832
426.10 1.83
426.20 1.828
426.30 1.826
426.40 1.825
426.50 1.823
426.60 1.821
426.70 1.82
426.80 1.818
426.90 1.816
427.00 1.814
427.10 1.812
427.20 1.811
427.30 1.809
427.40 1.807
427.50 1.805
427.60 1.804
427.70 1.802
427.80 1.8
427.90 1.798
428.00 1.796
428.10 1.794
428.20 1.792
428.30 1.791
428.40 1.789
428.50 1.787
428.60 1.785
428.70 1.783
428.80 1.781
428.90 1.779
429.00 1.777
429.10 1.775
429.20 1.773
429.30 1.771
429.40 1.768
429.50 1.766
429.60 1.764
429.70 1.762
429.80 1.759
429.90 1.757
430.00 1.755
430.10 1.752
430.20 1.75
430.30 1.747
430.40 1.744
430.50 1.741
430.60 1.738
430.70 1.735
430.80 1.732
430.90 1.729
431.00 1.725
431.10 1.722
431.20 1.718
431.30 1.714
431.40 1.71
431.50 1.705
431.60 1.7
431.70 1.695
431.80 1.69
431.90 1.684
432.00 1.678
432.10 1.671
432.20 1.664
432.30 1.656
432.40 1.648
432.50 1.638
432.60 1.628
432.70 1.618
432.80 1.606
432.90 1.593
433.00 1.579
433.10 1.564
433.20 1.548
433.30 1.531
433.40 1.511
433.50 1.49
433.60 1.468
433.70 1.443
433.80 1.414
433.90 1.38
434.00 1.342
434.10 1.342
434.20 1.38
434.30 1.41
434.40 1.437
434.50 1.459
434.60 1.479
434.70 1.497
434.80 1.513
434.90 1.528
435.00 1.541
435.10 1.553
435.20 1.564
435.30 1.574
435.40 1.583
435.50 1.59
435.60 1.597
435.70 1.603
435.80 1.609
435.90 1.614
436.00 1.618
436.10 1.621
436.20 1.625
436.30 1.627
436.40 1.63
436.50 1.632
436.60 1.633
436.70 1.635
436.80 1.636
436.90 1.637
437.00 1.638
437.10 1.638
437.20 1.639
437.30 1.639
437.40 1.639
437.50 1.639
437.60 1.639
437.70 1.639
437.80 1.638
437.90 1.638
438.00 1.637
438.10 1.637
438.20 1.636
438.30 1.635
438.40 1.635
438.50 1.634
438.60 1.633
438.70 1.632
438.80 1.631
438.90 1.631
439.00 1.63
439.10 1.629
439.20 1.628
439.30 1.627
439.40 1.626
439.50 1.625
439.60 1.623
439.70 1.622
439.80 1.621
439.90 1.62
440.00 1.619
440.10 1.618
440.20 1.617
440.30 1.616
440.40 1.614
440.50 1.613
440.60 1.612
440.70 1.611
440.80 1.61
440.90 1.608
441.00 1.607
441.10 1.606
441.20 1.605
441.30 1.603
441.40 1.602
441.50 1.601
441.60 1.6
441.70 1.598
441.80 1.597
441.90 1.596
442.00 1.594
442.10 1.593
442.20 1.592
442.30 1.591
442.40 1.589
442.50 1.588
442.60 1.587
442.70 1.585
442.80 1.584
442.90 1.583
443.00 1.582
443.10 1.58
443.20 1.579
443.30 1.578
443.40 1.576
443.50 1.575
443.60 1.574
443.70 1.573
443.80 1.571
443.90 1.57
444.00 1.569
444.10 1.567
444.20 1.566
444.30 1.565
444.40 1.563
444.50 1.562
444.60 1.561
444.70 1.56
444.80 1.558
444.90 1.557
445.00 1.556
445.10 1.554
445.20 1.553
445.30 1.552
445.40 1.551
445.50 1.549
445.60 1.548
445.70 1.547
445.80 1.545
445.90 1.544
446.00 1.543
446.10 1.541
446.20 1.54
446.30 1.539
446.40 1.538
446.50 1.536
446.60 1.535
446.70 1.534
446.80 1.532
446.90 1.531
447.00 1.53
447.10 1.529
447.20 1.527
447.30 1.526
447.40 1.525
447.50 1.524
447.60 1.522
447.70 1.521
447.80 1.52
447.90 1.518
448.00 1.517
448.10 1.516
448.20 1.515
448.30 1.513
448.40 1.512
448.50 1.511
448.60 1.51
448.70 1.508
448.80 1.507
448.90 1.506
449.00 1.504
449.10 1.503
449.20 1.502
449.30 1.501
449.40 1.499
449.50 1.498
449.60 1.497
449.70 1.496
449.80 1.494
449.90 1.493
450.00 1.492
450.10 1.491
450.20 1.489
450.30 1.488
450.40 1.487
450.50 1.486
450.60 1.484
450.70 1.483
450.80 1.482
450.90 1.481
451.00 1.48
451.10 1.478
451.20 1.477
451.30 1.476
451.40 1.475
451.50 1.473
451.60 1.472
451.70 1.471
451.80 1.47
451.90 1.468
452.00 1.467
452.10 1.466
452.20 1.465
452.30 1.464
452.40 1.462
452.50 1.461
452.60 1.46
452.70 1.459
452.80 1.457
452.90 1.456
453.00 1.455
453.10 1.454
453.20 1.453
453.30 1.451
453.40 1.45
453.50 1.449
453.60 1.448
453.70 1.447
453.80 1.445
453.90 1.444
454.00 1.443
454.10 1.442
454.20 1.441
