# Version 2.1 - nm, norm@500 to 1, cut digits, bergeron_6000_65.dat_6000
# Wavelength(nm)  Flambda(ergs/cm^s/s/nm)
300.00 0.7231
300.10 0.7235
300.20 0.724
300.30 0.7245
300.40 0.7249
300.50 0.7254
300.60 0.7258
300.70 0.7263
300.80 0.7268
300.90 0.7272
301.00 0.7277
301.10 0.7281
301.20 0.7286
301.30 0.729
301.40 0.7295
301.50 0.73
301.60 0.7304
301.70 0.7309
301.80 0.7313
301.90 0.7318
302.00 0.7322
302.10 0.7327
302.20 0.7331
302.30 0.7336
302.40 0.734
302.50 0.7345
302.60 0.7349
302.70 0.7354
302.80 0.7358
302.90 0.7363
303.00 0.7367
303.10 0.7372
303.20 0.7376
303.30 0.7381
303.40 0.7385
303.50 0.739
303.60 0.7394
303.70 0.7398
303.80 0.7403
303.90 0.7407
304.00 0.7412
304.10 0.7416
304.20 0.7421
304.30 0.7425
304.40 0.743
304.50 0.7434
304.60 0.7439
304.70 0.7443
304.80 0.7447
304.90 0.7452
305.00 0.7456
305.10 0.7461
305.20 0.7465
305.30 0.747
305.40 0.7474
305.50 0.7478
305.60 0.7483
305.70 0.7487
305.80 0.7492
305.90 0.7496
306.00 0.75
306.10 0.7505
306.20 0.7509
306.30 0.7514
306.40 0.7518
306.50 0.7522
306.60 0.7527
306.70 0.7531
306.80 0.7535
306.90 0.754
307.00 0.7544
307.10 0.7548
307.20 0.7553
307.30 0.7557
307.40 0.7561
307.50 0.7566
307.60 0.757
307.70 0.7574
307.80 0.7579
307.90 0.7583
308.00 0.7587
308.10 0.7592
308.20 0.7596
308.30 0.76
308.40 0.7604
308.50 0.7609
308.60 0.7613
308.70 0.7617
308.80 0.7622
308.90 0.7626
309.00 0.763
309.10 0.7634
309.20 0.7639
309.30 0.7643
309.40 0.7647
309.50 0.7651
309.60 0.7656
309.70 0.766
309.80 0.7664
309.90 0.7668
310.00 0.7673
310.10 0.7677
310.20 0.7681
310.30 0.7685
310.40 0.7689
310.50 0.7694
310.60 0.7698
310.70 0.7702
310.80 0.7706
310.90 0.7711
311.00 0.7715
311.10 0.7719
311.20 0.7723
311.30 0.7727
311.40 0.7731
311.50 0.7736
311.60 0.774
311.70 0.7744
311.80 0.7748
311.90 0.7752
312.00 0.7756
312.10 0.776
312.20 0.7764
312.30 0.7769
312.40 0.7773
312.50 0.7777
312.60 0.7781
312.70 0.7785
312.80 0.779
312.90 0.7794
313.00 0.7798
313.10 0.7802
313.20 0.7806
313.30 0.781
313.40 0.7814
313.50 0.7818
313.60 0.7822
313.70 0.7826
313.80 0.7831
313.90 0.7835
314.00 0.7839
314.10 0.7843
314.20 0.7847
314.30 0.7851
314.40 0.7855
314.50 0.7859
314.60 0.7863
314.70 0.7867
314.80 0.7871
314.90 0.7875
315.00 0.7879
315.10 0.7883
315.20 0.7887
315.30 0.7891
315.40 0.7895
315.50 0.7899
315.60 0.7903
315.70 0.7907
315.80 0.7911
315.90 0.7915
316.00 0.7919
316.10 0.7923
316.20 0.7927
316.30 0.7931
316.40 0.7935
316.50 0.7939
316.60 0.7943
316.70 0.7947
316.80 0.7951
316.90 0.7955
317.00 0.7959
317.10 0.7963
317.20 0.7967
317.30 0.7971
317.40 0.7975
317.50 0.7979
317.60 0.7983
317.70 0.7987
317.80 0.7991
317.90 0.7995
318.00 0.7998
318.10 0.8002
318.20 0.8006
318.30 0.801
318.40 0.8014
318.50 0.8018
318.60 0.8022
318.70 0.8026
318.80 0.803
318.90 0.8034
319.00 0.8038
319.10 0.8041
319.20 0.8045
319.30 0.8049
319.40 0.8053
319.50 0.8057
319.60 0.8061
319.70 0.8065
319.80 0.8068
319.90 0.8072
320.00 0.8076
320.10 0.808
320.20 0.8084
320.30 0.8088
320.40 0.8092
320.50 0.8095
320.60 0.8099
320.70 0.8103
320.80 0.8107
320.90 0.8111
321.00 0.8115
321.10 0.8118
321.20 0.8122
321.30 0.8126
321.40 0.813
321.50 0.8134
321.60 0.8137
321.70 0.8141
321.80 0.8145
321.90 0.8149
322.00 0.8152
322.10 0.8156
322.20 0.816
322.30 0.8164
322.40 0.8167
322.50 0.8171
322.60 0.8175
322.70 0.8179
322.80 0.8182
322.90 0.8186
323.00 0.819
323.10 0.8194
323.20 0.8197
323.30 0.8201
323.40 0.8205
323.50 0.8208
323.60 0.8212
323.70 0.8216
323.80 0.822
323.90 0.8223
324.00 0.8227
324.10 0.8231
324.20 0.8234
324.30 0.8238
324.40 0.8242
324.50 0.8245
324.60 0.8249
324.70 0.8253
324.80 0.8256
324.90 0.826
325.00 0.8264
325.10 0.8267
325.20 0.8271
325.30 0.8275
325.40 0.8278
325.50 0.8282
325.60 0.8285
325.70 0.8289
325.80 0.8293
325.90 0.8296
326.00 0.83
326.10 0.8303
326.20 0.8307
326.30 0.8311
326.40 0.8314
326.50 0.8318
326.60 0.8321
326.70 0.8325
326.80 0.8329
326.90 0.8332
327.00 0.8336
327.10 0.8339
327.20 0.8343
327.30 0.8346
327.40 0.835
327.50 0.8354
327.60 0.8357
327.70 0.8361
327.80 0.8364
327.90 0.8368
328.00 0.8371
328.10 0.8375
328.20 0.8378
328.30 0.8382
328.40 0.8385
328.50 0.8389
328.60 0.8392
328.70 0.8396
328.80 0.8399
328.90 0.8403
329.00 0.8406
329.10 0.841
329.20 0.8413
329.30 0.8417
329.40 0.842
329.50 0.8424
329.60 0.8427
329.70 0.8431
329.80 0.8434
329.90 0.8438
330.00 0.8441
330.10 0.8445
330.20 0.8448
330.30 0.8451
330.40 0.8455
330.50 0.8458
330.60 0.8462
330.70 0.8465
330.80 0.8469
330.90 0.8472
331.00 0.8475
331.10 0.8479
331.20 0.8482
331.30 0.8486
331.40 0.8489
331.50 0.8492
331.60 0.8496
331.70 0.8499
331.80 0.8502
331.90 0.8506
332.00 0.8509
332.10 0.8513
332.20 0.8516
332.30 0.8519
332.40 0.8523
332.50 0.8526
332.60 0.8529
332.70 0.8533
332.80 0.8536
332.90 0.8539
333.00 0.8543
333.10 0.8546
333.20 0.8549
333.30 0.8553
333.40 0.8556
333.50 0.8559
333.60 0.8563
333.70 0.8566
333.80 0.8569
333.90 0.8573
334.00 0.8576
334.10 0.8579
334.20 0.8583
334.30 0.8586
334.40 0.8589
334.50 0.8592
334.60 0.8596
334.70 0.8599
334.80 0.8602
334.90 0.8605
335.00 0.8609
335.10 0.8612
335.20 0.8615
335.30 0.8618
335.40 0.8622
335.50 0.8625
335.60 0.8628
335.70 0.8631
335.80 0.8634
335.90 0.8638
336.00 0.8641
336.10 0.8644
336.20 0.8647
336.30 0.8651
336.40 0.8654
336.50 0.8657
336.60 0.866
336.70 0.8663
336.80 0.8667
336.90 0.867
337.00 0.8673
337.10 0.8676
337.20 0.8679
337.30 0.8682
337.40 0.8686
337.50 0.8689
337.60 0.8692
337.70 0.8695
337.80 0.8698
337.90 0.8701
338.00 0.8704
338.10 0.8708
338.20 0.8711
338.30 0.8714
338.40 0.8717
338.50 0.872
338.60 0.8723
338.70 0.8726
338.80 0.8729
338.90 0.8733
339.00 0.8736
339.10 0.8739
339.20 0.8742
339.30 0.8745
339.40 0.8748
339.50 0.8751
339.60 0.8754
339.70 0.8757
339.80 0.876
339.90 0.8763
340.00 0.8767
340.10 0.877
340.20 0.8773
340.30 0.8776
340.40 0.8779
340.50 0.8782
340.60 0.8785
340.70 0.8788
340.80 0.8791
340.90 0.8794
341.00 0.8797
341.10 0.88
341.20 0.8803
341.30 0.8806
341.40 0.8809
341.50 0.8812
341.60 0.8815
341.70 0.8818
341.80 0.8821
341.90 0.8824
342.00 0.8827
342.10 0.883
342.20 0.8833
342.30 0.8836
342.40 0.8839
342.50 0.8842
342.60 0.8845
342.70 0.8848
342.80 0.8851
342.90 0.8854
343.00 0.8857
343.10 0.8859
343.20 0.8862
343.30 0.8865
343.40 0.8868
343.50 0.8871
343.60 0.8874
343.70 0.8877
343.80 0.888
343.90 0.8883
344.00 0.8886
344.10 0.8889
344.20 0.8891
344.30 0.8894
344.40 0.8897
344.50 0.89
344.60 0.8903
344.70 0.8906
344.80 0.8909
344.90 0.8912
345.00 0.8915
345.10 0.8917
345.20 0.892
345.30 0.8923
345.40 0.8926
345.50 0.8929
345.60 0.8932
345.70 0.8935
345.80 0.8937
345.90 0.894
346.00 0.8943
346.10 0.8946
346.20 0.8949
346.30 0.8952
346.40 0.8954
346.50 0.8957
346.60 0.896
346.70 0.8963
346.80 0.8966
346.90 0.8968
347.00 0.8971
347.10 0.8974
347.20 0.8977
347.30 0.8979
347.40 0.8982
347.50 0.8985
347.60 0.8988
347.70 0.899
347.80 0.8993
347.90 0.8996
348.00 0.8999
348.10 0.9001
348.20 0.9004
348.30 0.9007
348.40 0.901
348.50 0.9012
348.60 0.9015
348.70 0.9018
348.80 0.9021
348.90 0.9023
349.00 0.9026
349.10 0.9029
349.20 0.9031
349.30 0.9034
349.40 0.9037
349.50 0.904
349.60 0.9042
349.70 0.9045
349.80 0.9048
349.90 0.905
350.00 0.9053
350.10 0.9056
350.20 0.9058
350.30 0.9061
350.40 0.9064
350.50 0.9066
350.60 0.9069
350.70 0.9072
350.80 0.9074
350.90 0.9077
351.00 0.9079
351.10 0.9082
351.20 0.9085
351.30 0.9087
351.40 0.909
351.50 0.9092
351.60 0.9095
351.70 0.9098
351.80 0.91
351.90 0.9103
352.00 0.9105
352.10 0.9108
352.20 0.9111
352.30 0.9113
352.40 0.9116
352.50 0.9118
352.60 0.9121
352.70 0.9124
352.80 0.9126
352.90 0.9129
353.00 0.9131
353.10 0.9134
353.20 0.9136
353.30 0.9139
353.40 0.9142
353.50 0.9144
353.60 0.9147
353.70 0.9149
353.80 0.9152
353.90 0.9154
354.00 0.9157
354.10 0.9159
354.20 0.9162
354.30 0.9164
354.40 0.9167
354.50 0.9169
354.60 0.9172
354.70 0.9174
354.80 0.9177
354.90 0.9179
355.00 0.9182
355.10 0.9184
355.20 0.9187
355.30 0.9189
355.40 0.9192
355.50 0.9194
355.60 0.9196
355.70 0.9199
355.80 0.9201
355.90 0.9204
356.00 0.9206
356.10 0.9209
356.20 0.9211
356.30 0.9214
356.40 0.9216
356.50 0.9218
356.60 0.9221
356.70 0.9223
356.80 0.9226
356.90 0.9228
357.00 0.9231
357.10 0.9233
357.20 0.9235
357.30 0.9238
357.40 0.924
357.50 0.9243
357.60 0.9245
357.70 0.9247
357.80 0.925
357.90 0.9252
358.00 0.9254
358.10 0.9257
358.20 0.9259
358.30 0.9262
358.40 0.9264
358.50 0.9266
358.60 0.9269
358.70 0.9271
358.80 0.9273
358.90 0.9276
359.00 0.9278
359.10 0.928
359.20 0.9283
359.30 0.9285
359.40 0.9287
359.50 0.929
359.60 0.9292
359.70 0.9294
359.80 0.9296
359.90 0.9299
360.00 0.9301
360.10 0.9303
360.20 0.9306
360.30 0.9308
360.40 0.931
360.50 0.9312
360.60 0.9315
360.70 0.9317
360.80 0.9319
360.90 0.9322
361.00 0.9324
361.10 0.9326
361.20 0.9328
361.30 0.9331
361.40 0.9333
361.50 0.9335
361.60 0.9337
361.70 0.9339
361.80 0.9342
361.90 0.9344
362.00 0.9346
362.10 0.9348
362.20 0.9351
362.30 0.9353
362.40 0.9355
362.50 0.9357
362.60 0.9359
362.70 0.9362
362.80 0.9364
362.90 0.9366
363.00 0.9368
363.10 0.937
363.20 0.9372
363.30 0.9375
363.40 0.9377
363.50 0.9379
363.60 0.9381
363.70 0.9383
363.80 0.9385
363.90 0.9388
364.00 0.939
364.10 0.9392
364.20 0.9394
364.30 0.9396
364.40 0.9398
364.50 0.94
364.60 0.9403
364.70 0.9405
364.80 0.9407
364.90 0.9409
365.00 0.9411
365.10 0.9413
365.20 0.9415
365.30 0.9417
365.40 0.9419
365.50 0.9421
365.60 0.9423
365.70 0.9425
365.80 0.9428
365.90 0.943
366.00 0.9432
366.10 0.9434
366.20 0.9436
366.30 0.9438
366.40 0.944
366.50 0.9442
366.60 0.9444
366.70 0.9446
366.80 0.9448
366.90 0.945
367.00 0.9452
367.10 0.9454
367.20 0.9456
367.30 0.9458
367.40 0.946
367.50 0.9462
367.60 0.9464
367.70 0.9466
367.80 0.9468
367.90 0.947
368.00 0.9472
368.10 0.9474
368.20 0.9476
368.30 0.9478
368.40 0.948
368.50 0.9482
368.60 0.9484
368.70 0.9486
368.80 0.9488
368.90 0.949
369.00 0.9492
369.10 0.9494
369.20 0.9496
369.30 0.9498
369.40 0.95
369.50 0.9502
369.60 0.9504
369.70 0.9506
369.80 0.9508
369.90 0.951
370.00 0.9512
370.10 0.9515
370.20 0.9518
370.30 0.9521
370.40 0.9524
370.50 0.9527
370.60 0.953
370.70 0.9533
370.80 0.9536
370.90 0.9539
371.00 0.9542
371.10 0.9545
371.20 0.9548
371.30 0.9551
371.40 0.9553
371.50 0.9556
371.60 0.9559
371.70 0.9562
371.80 0.9565
371.90 0.9568
372.00 0.9571
372.10 0.9575
372.20 0.9579
372.30 0.9584
372.40 0.9588
372.50 0.9592
372.60 0.9596
372.70 0.96
372.80 0.9604
372.90 0.9608
373.00 0.9612
373.10 0.9617
373.20 0.9621
373.30 0.9625
373.40 0.9629
373.50 0.9633
373.60 0.9637
373.70 0.9641
373.80 0.9645
373.90 0.9649
374.00 0.9653
374.10 0.9657
374.20 0.9662
374.30 0.9666
374.40 0.967
374.50 0.9674
374.60 0.9678
374.70 0.9682
374.80 0.9686
374.90 0.9691
375.00 0.9695
375.10 0.9699
375.20 0.9703
375.30 0.9707
375.40 0.9711
375.50 0.9715
375.60 0.9719
375.70 0.9723
375.80 0.9727
375.90 0.9731
376.00 0.9735
376.10 0.9739
376.20 0.9742
376.30 0.9746
376.40 0.975
376.50 0.9753
376.60 0.9757
376.70 0.976
376.80 0.9764
376.90 0.9767
377.00 0.9771
377.10 0.9774
377.20 0.9776
377.30 0.9779
377.40 0.9782
377.50 0.9785
377.60 0.9788
377.70 0.979
377.80 0.9793
377.90 0.9796
378.00 0.9799
378.10 0.9797
378.20 0.9796
378.30 0.9794
378.40 0.9793
378.50 0.9791
378.60 0.979
378.70 0.9788
378.80 0.9786
378.90 0.9785
379.00 0.9783
379.10 0.9754
379.20 0.9725
379.30 0.9695
379.40 0.9666
379.50 0.9637
379.60 0.9608
379.70 0.9578
379.80 0.9549
379.90 0.952
380.00 0.9491
380.10 0.9529
380.20 0.9566
380.30 0.9604
380.40 0.9641
380.50 0.9679
380.60 0.9716
380.70 0.9754
380.80 0.9791
380.90 0.9829
381.00 0.9866
381.10 0.987
381.20 0.9874
381.30 0.9879
381.40 0.9883
381.50 0.9887
381.60 0.9889
381.70 0.9892
381.80 0.9893
381.90 0.9894
382.00 0.9895
382.10 0.9895
382.20 0.9894
382.30 0.9867
382.40 0.984
382.50 0.9813
382.60 0.9786
382.70 0.9759
382.80 0.9732
382.90 0.9706
383.00 0.9679
383.10 0.9652
383.20 0.9625
383.30 0.9453
383.40 0.9134
383.50 0.8429
383.60 0.8656
383.70 0.9231
383.80 0.9511
383.90 0.9667
384.00 0.9761
384.10 0.982
384.20 0.9859
384.30 0.9886
384.40 0.9905
384.50 0.992
384.60 0.9931
384.70 0.994
384.80 0.9947
384.90 0.9953
385.00 0.9958
385.10 0.9962
385.20 0.9966
385.30 0.9969
385.40 0.9972
385.50 0.9975
385.60 0.9978
385.70 0.998
385.80 0.9982
385.90 0.9985
386.00 0.9987
386.10 0.9989
386.20 0.999
386.30 0.9992
386.40 0.9994
386.50 0.9995
386.60 0.9996
386.70 0.9997
386.80 0.9998
386.90 0.9999
387.00 1
387.10 1
387.20 1
387.30 1
387.40 0.9999
387.50 0.9997
387.60 0.9994
387.70 0.9991
387.80 0.9984
387.90 0.9976
388.00 0.9965
388.10 0.9947
388.20 0.992
388.30 0.9886
388.40 0.9819
388.50 0.9713
388.60 0.9566
388.70 0.9193
388.80 0.8325
388.90 0.6962
389.00 0.8287
389.10 0.915
389.20 0.9554
389.30 0.9712
389.40 0.9828
389.50 0.9901
389.60 0.994
389.70 0.997
389.80 0.9993
389.90 1.001
390.00 1.002
390.10 1.003
390.20 1.004
390.30 1.004
390.40 1.005
390.50 1.005
390.60 1.005
390.70 1.006
390.80 1.006
390.90 1.006
391.00 1.007
391.10 1.007
391.20 1.007
391.30 1.007
391.40 1.007
391.50 1.008
391.60 1.008
391.70 1.008
391.80 1.008
391.90 1.008
392.00 1.008
392.10 1.009
392.20 1.009
392.30 1.009
392.40 1.009
392.50 1.009
392.60 1.009
392.70 1.01
392.80 1.01
392.90 1.01
393.00 1.01
393.10 1.01
393.20 1.01
393.30 1.01
393.40 1.01
393.50 1.011
393.60 1.011
393.70 1.011
393.80 1.011
393.90 1.011
394.00 1.011
394.10 1.011
394.20 1.011
394.30 1.011
394.40 1.011
394.50 1.011
394.60 1.012
394.70 1.012
394.80 1.012
394.90 1.012
395.00 1.012
395.10 1.012
395.20 1.012
395.30 1.011
395.40 1.011
395.50 1.011
395.60 1.011
395.70 1.01
395.80 1.01
395.90 1.009
396.00 1.008
396.10 1.007
396.20 1.004
396.30 1.001
396.40 0.9971
396.50 0.9891
396.60 0.9761
396.70 0.9581
396.80 0.9099
396.90 0.7845
397.00 0.5821
397.10 0.7768
397.20 0.9011
397.30 0.955
397.40 0.9747
397.50 0.989
397.60 0.9978
397.70 1.002
397.80 1.006
397.90 1.009
398.00 1.01
398.10 1.012
398.20 1.013
398.30 1.013
398.40 1.014
398.50 1.015
398.60 1.015
398.70 1.015
398.80 1.016
398.90 1.016
399.00 1.016
399.10 1.016
399.20 1.017
399.30 1.017
399.40 1.017
399.50 1.017
399.60 1.017
399.70 1.018
399.80 1.018
399.90 1.018
400.00 1.018
400.10 1.018
400.20 1.018
400.30 1.018
400.40 1.019
400.50 1.019
400.60 1.019
400.70 1.019
400.80 1.019
400.90 1.019
401.00 1.019
401.10 1.019
401.20 1.02
401.30 1.02
401.40 1.02
401.50 1.02
401.60 1.02
401.70 1.02
401.80 1.02
401.90 1.02
402.00 1.02
402.10 1.021
402.20 1.021
402.30 1.021
402.40 1.021
402.50 1.021
402.60 1.021
402.70 1.021
402.80 1.021
402.90 1.021
403.00 1.021
403.10 1.021
403.20 1.022
403.30 1.022
403.40 1.022
403.50 1.022
403.60 1.022
403.70 1.022
403.80 1.022
403.90 1.022
404.00 1.022
404.10 1.022
404.20 1.023
404.30 1.023
404.40 1.023
404.50 1.023
404.60 1.023
404.70 1.023
404.80 1.023
404.90 1.023
405.00 1.023
405.10 1.023
405.20 1.023
405.30 1.023
405.40 1.023
405.50 1.024
405.60 1.024
405.70 1.024
405.80 1.024
405.90 1.024
406.00 1.024
406.10 1.024
406.20 1.024
406.30 1.024
406.40 1.024
406.50 1.024
406.60 1.024
406.70 1.024
406.80 1.024
406.90 1.024
407.00 1.024
407.10 1.024
407.20 1.024
407.30 1.024
407.40 1.024
407.50 1.024
407.60 1.025
407.70 1.025
407.80 1.024
407.90 1.024
408.00 1.024
408.10 1.024
408.20 1.024
408.30 1.024
408.40 1.024
408.50 1.024
408.60 1.023
408.70 1.023
408.80 1.023
408.90 1.022
409.00 1.021
409.10 1.02
409.20 1.019
409.30 1.017
409.40 1.014
409.50 1.01
409.60 1.004
409.70 0.9929
409.80 0.9746
409.90 0.9491
410.00 0.8729
410.10 0.746
410.20 0.5686
410.30 0.7853
410.40 0.9183
410.50 0.9678
410.60 0.9864
410.70 1
410.80 1.009
410.90 1.013
411.00 1.017
411.10 1.019
411.20 1.021
411.30 1.022
411.40 1.024
411.50 1.024
411.60 1.025
411.70 1.026
411.80 1.026
411.90 1.026
412.00 1.027
412.10 1.027
412.20 1.027
412.30 1.027
412.40 1.028
412.50 1.028
412.60 1.028
412.70 1.028
412.80 1.028
412.90 1.028
413.00 1.028
413.10 1.029
413.20 1.029
413.30 1.029
413.40 1.029
413.50 1.029
413.60 1.029
413.70 1.029
413.80 1.029
413.90 1.029
414.00 1.029
414.10 1.03
414.20 1.03
414.30 1.03
414.40 1.03
414.50 1.03
414.60 1.03
414.70 1.03
414.80 1.03
414.90 1.03
415.00 1.03
415.10 1.03
415.20 1.03
415.30 1.03
415.40 1.03
415.50 1.031
415.60 1.031
415.70 1.031
415.80 1.031
415.90 1.031
416.00 1.031
416.10 1.031
416.20 1.031
416.30 1.031
416.40 1.031
416.50 1.031
416.60 1.031
416.70 1.031
416.80 1.031
416.90 1.031
417.00 1.031
417.10 1.031
417.20 1.031
417.30 1.032
417.40 1.032
417.50 1.032
417.60 1.032
417.70 1.032
417.80 1.032
417.90 1.032
418.00 1.032
418.10 1.032
418.20 1.032
418.30 1.032
418.40 1.032
418.50 1.032
418.60 1.032
418.70 1.032
418.80 1.032
418.90 1.032
419.00 1.032
419.10 1.032
419.20 1.032
419.30 1.032
419.40 1.033
419.50 1.033
419.60 1.033
419.70 1.033
419.80 1.033
419.90 1.033
420.00 1.033
420.10 1.033
420.20 1.033
420.30 1.033
420.40 1.033
420.50 1.033
420.60 1.033
420.70 1.033
420.80 1.033
420.90 1.033
421.00 1.033
421.10 1.033
421.20 1.033
421.30 1.033
421.40 1.033
421.50 1.033
421.60 1.033
421.70 1.033
421.80 1.034
421.90 1.034
422.00 1.034
422.10 1.034
422.20 1.034
422.30 1.034
422.40 1.034
422.50 1.034
422.60 1.034
422.70 1.034
422.80 1.034
422.90 1.034
423.00 1.034
423.10 1.034
423.20 1.034
423.30 1.034
423.40 1.034
423.50 1.034
423.60 1.034
423.70 1.034
423.80 1.034
423.90 1.034
424.00 1.034
424.10 1.034
424.20 1.034
424.30 1.034
424.40 1.034
424.50 1.034
424.60 1.034
424.70 1.034
424.80 1.034
424.90 1.035
425.00 1.035
425.10 1.035
425.20 1.035
425.30 1.035
425.40 1.035
425.50 1.035
425.60 1.035
425.70 1.035
425.80 1.035
425.90 1.035
426.00 1.035
426.10 1.035
426.20 1.035
426.30 1.035
426.40 1.035
426.50 1.035
426.60 1.035
426.70 1.035
426.80 1.035
426.90 1.035
427.00 1.035
427.10 1.035
427.20 1.035
427.30 1.035
427.40 1.035
427.50 1.035
427.60 1.035
427.70 1.035
427.80 1.035
427.90 1.035
428.00 1.035
428.10 1.035
428.20 1.035
428.30 1.035
428.40 1.035
428.50 1.035
428.60 1.035
428.70 1.035
428.80 1.035
428.90 1.035
429.00 1.035
429.10 1.035
429.20 1.035
429.30 1.035
429.40 1.035
429.50 1.035
429.60 1.035
429.70 1.035
429.80 1.035
429.90 1.035
430.00 1.035
430.10 1.035
430.20 1.035
430.30 1.035
430.40 1.035
430.50 1.035
430.60 1.035
430.70 1.035
430.80 1.035
430.90 1.035
431.00 1.035
431.10 1.035
431.20 1.035
431.30 1.035
431.40 1.035
431.50 1.035
431.60 1.035
431.70 1.034
431.80 1.034
431.90 1.034
432.00 1.034
432.10 1.034
432.20 1.033
432.30 1.033
432.40 1.033
432.50 1.032
432.60 1.032
432.70 1.031
432.80 1.03
432.90 1.029
433.00 1.028
433.10 1.026
433.20 1.023
433.30 1.019
433.40 1.013
433.50 1.004
433.60 0.9928
433.70 0.9677
433.80 0.9196
433.90 0.8486
434.00 0.5306
434.10 0.5341
434.20 0.8585
434.30 0.9252
434.40 0.9705
434.50 0.9944
434.60 1.005
434.70 1.014
434.80 1.02
434.90 1.023
435.00 1.026
435.10 1.028
435.20 1.029
435.30 1.03
435.40 1.031
435.50 1.032
435.60 1.033
435.70 1.033
435.80 1.033
435.90 1.034
436.00 1.034
436.10 1.034
436.20 1.034
436.30 1.035
436.40 1.035
436.50 1.035
436.60 1.035
436.70 1.035
436.80 1.035
436.90 1.035
437.00 1.035
437.10 1.036
437.20 1.036
437.30 1.036
437.40 1.036
437.50 1.036
437.60 1.036
437.70 1.036
437.80 1.036
437.90 1.036
438.00 1.036
438.10 1.036
438.20 1.036
438.30 1.036
438.40 1.036
438.50 1.036
438.60 1.036
438.70 1.036
438.80 1.036
438.90 1.036
439.00 1.036
439.10 1.036
439.20 1.036
439.30 1.036
439.40 1.036
439.50 1.036
439.60 1.036
439.70 1.036
439.80 1.036
439.90 1.036
440.00 1.036
440.10 1.036
440.20 1.036
440.30 1.036
440.40 1.036
440.50 1.036
440.60 1.036
440.70 1.036
440.80 1.036
440.90 1.036
441.00 1.036
441.10 1.036
441.20 1.036
441.30 1.036
441.40 1.036
441.50 1.036
441.60 1.036
441.70 1.036
441.80 1.036
441.90 1.036
442.00 1.036
442.10 1.036
442.20 1.036
442.30 1.036
442.40 1.036
442.50 1.036
442.60 1.036
442.70 1.036
442.80 1.036
442.90 1.036
443.00 1.036
443.10 1.036
443.20 1.036
443.30 1.036
443.40 1.036
443.50 1.036
443.60 1.036
443.70 1.036
443.80 1.036
443.90 1.036
444.00 1.036
444.10 1.036
444.20 1.036
444.30 1.036
444.40 1.036
444.50 1.036
444.60 1.036
444.70 1.036
444.80 1.036
444.90 1.036
445.00 1.036
445.10 1.036
445.20 1.036
445.30 1.036
445.40 1.036
445.50 1.036
445.60 1.036
445.70 1.035
445.80 1.035
445.90 1.035
446.00 1.035
446.10 1.035
446.20 1.035
446.30 1.035
446.40 1.035
446.50 1.035
446.60 1.035
446.70 1.035
446.80 1.035
446.90 1.035
