# Version 2.1 - nm, norm@500 to 1, cut digits, bergeron_3250_95.dat_3250
# Wavelength(nm)  Flambda(ergs/cm^s/s/nm)
300.00 0.1578
300.10 0.1581
300.20 0.1584
300.30 0.1587
300.40 0.159
300.50 0.1593
300.60 0.1597
300.70 0.16
300.80 0.1603
300.90 0.1606
301.00 0.1609
301.10 0.1612
301.20 0.1615
301.30 0.1618
301.40 0.1621
301.50 0.1625
301.60 0.1628
301.70 0.1631
301.80 0.1634
301.90 0.1637
302.00 0.164
302.10 0.1643
302.20 0.1646
302.30 0.165
302.40 0.1653
302.50 0.1656
302.60 0.1659
302.70 0.1662
302.80 0.1666
302.90 0.1669
303.00 0.1672
303.10 0.1675
303.20 0.1678
303.30 0.1681
303.40 0.1685
303.50 0.1688
303.60 0.1691
303.70 0.1694
303.80 0.1697
303.90 0.17
304.00 0.1703
304.10 0.1707
304.20 0.171
304.30 0.1713
304.40 0.1716
304.50 0.172
304.60 0.1723
304.70 0.1726
304.80 0.1729
304.90 0.1733
305.00 0.1736
305.10 0.1739
305.20 0.1742
305.30 0.1746
305.40 0.1749
305.50 0.1752
305.60 0.1755
305.70 0.1758
305.80 0.1762
305.90 0.1765
306.00 0.1768
306.10 0.1771
306.20 0.1775
306.30 0.1778
306.40 0.1781
306.50 0.1785
306.60 0.1788
306.70 0.1791
306.80 0.1795
306.90 0.1798
307.00 0.1801
307.10 0.1805
307.20 0.1808
307.30 0.1811
307.40 0.1814
307.50 0.1818
307.60 0.1821
307.70 0.1824
307.80 0.1827
307.90 0.1831
308.00 0.1834
308.10 0.1837
308.20 0.1841
308.30 0.1844
308.40 0.1848
308.50 0.1851
308.60 0.1854
308.70 0.1858
308.80 0.1861
308.90 0.1864
309.00 0.1868
309.10 0.1871
309.20 0.1874
309.30 0.1878
309.40 0.1881
309.50 0.1884
309.60 0.1888
309.70 0.1891
309.80 0.1894
309.90 0.1898
310.00 0.1901
310.10 0.1905
310.20 0.1908
310.30 0.1911
310.40 0.1915
310.50 0.1918
310.60 0.1922
310.70 0.1925
310.80 0.1929
310.90 0.1932
311.00 0.1936
311.10 0.1939
311.20 0.1942
311.30 0.1946
311.40 0.1949
311.50 0.1953
311.60 0.1956
311.70 0.1959
311.80 0.1963
311.90 0.1966
312.00 0.1969
312.10 0.1973
312.20 0.1976
312.30 0.198
312.40 0.1983
312.50 0.1987
312.60 0.199
312.70 0.1994
312.80 0.1997
312.90 0.2001
313.00 0.2004
313.10 0.2008
313.20 0.2011
313.30 0.2015
313.40 0.2018
313.50 0.2022
313.60 0.2025
313.70 0.2028
313.80 0.2032
313.90 0.2035
314.00 0.2039
314.10 0.2042
314.20 0.2046
314.30 0.2049
314.40 0.2053
314.50 0.2057
314.60 0.206
314.70 0.2064
314.80 0.2067
314.90 0.2071
315.00 0.2074
315.10 0.2078
315.20 0.2081
315.30 0.2085
315.40 0.2088
315.50 0.2092
315.60 0.2095
315.70 0.2099
315.80 0.2102
315.90 0.2106
316.00 0.2109
316.10 0.2113
316.20 0.2117
316.30 0.212
316.40 0.2124
316.50 0.2127
316.60 0.2131
316.70 0.2135
316.80 0.2138
316.90 0.2142
317.00 0.2145
317.10 0.2149
317.20 0.2153
317.30 0.2156
317.40 0.216
317.50 0.2163
317.60 0.2167
317.70 0.217
317.80 0.2174
317.90 0.2178
318.00 0.2181
318.10 0.2185
318.20 0.2188
318.30 0.2192
318.40 0.2196
318.50 0.2199
318.60 0.2203
318.70 0.2207
318.80 0.221
318.90 0.2214
319.00 0.2218
319.10 0.2221
319.20 0.2225
319.30 0.2229
319.40 0.2232
319.50 0.2236
319.60 0.2239
319.70 0.2243
319.80 0.2247
319.90 0.225
320.00 0.2254
320.10 0.2258
320.20 0.2261
320.30 0.2265
320.40 0.2269
320.50 0.2272
320.60 0.2276
320.70 0.228
320.80 0.2284
320.90 0.2287
321.00 0.2291
321.10 0.2295
321.20 0.2298
321.30 0.2302
321.40 0.2306
321.50 0.2309
321.60 0.2313
321.70 0.2317
321.80 0.232
321.90 0.2324
322.00 0.2328
322.10 0.2331
322.20 0.2335
322.30 0.2339
322.40 0.2343
322.50 0.2347
322.60 0.235
322.70 0.2354
322.80 0.2358
322.90 0.2362
323.00 0.2365
323.10 0.2369
323.20 0.2373
323.30 0.2377
323.40 0.238
323.50 0.2384
323.60 0.2388
323.70 0.2391
323.80 0.2395
323.90 0.2399
324.00 0.2403
324.10 0.2406
324.20 0.241
324.30 0.2414
324.40 0.2418
324.50 0.2422
324.60 0.2426
324.70 0.2429
324.80 0.2433
324.90 0.2437
325.00 0.2441
325.10 0.2445
325.20 0.2448
325.30 0.2452
325.40 0.2456
325.50 0.246
325.60 0.2463
325.70 0.2467
325.80 0.2471
325.90 0.2475
326.00 0.2479
326.10 0.2482
326.20 0.2486
326.30 0.249
326.40 0.2494
326.50 0.2498
326.60 0.2502
326.70 0.2506
326.80 0.2509
326.90 0.2513
327.00 0.2517
327.10 0.2521
327.20 0.2525
327.30 0.2529
327.40 0.2533
327.50 0.2536
327.60 0.254
327.70 0.2544
327.80 0.2548
327.90 0.2552
328.00 0.2555
328.10 0.2559
328.20 0.2563
328.30 0.2567
328.40 0.2571
328.50 0.2575
328.60 0.2579
328.70 0.2583
328.80 0.2587
328.90 0.2591
329.00 0.2595
329.10 0.2598
329.20 0.2602
329.30 0.2606
329.40 0.261
329.50 0.2614
329.60 0.2618
329.70 0.2622
329.80 0.2626
329.90 0.2629
330.00 0.2633
330.10 0.2637
330.20 0.2641
330.30 0.2645
330.40 0.2649
330.50 0.2653
330.60 0.2657
330.70 0.2661
330.80 0.2665
330.90 0.2669
331.00 0.2673
331.10 0.2677
331.20 0.2681
331.30 0.2685
331.40 0.2689
331.50 0.2693
331.60 0.2696
331.70 0.27
331.80 0.2704
331.90 0.2708
332.00 0.2712
332.10 0.2716
332.20 0.272
332.30 0.2724
332.40 0.2728
332.50 0.2732
332.60 0.2736
332.70 0.274
332.80 0.2744
332.90 0.2748
333.00 0.2752
333.10 0.2756
333.20 0.276
333.30 0.2764
333.40 0.2768
333.50 0.2772
333.60 0.2776
333.70 0.278
333.80 0.2784
333.90 0.2788
334.00 0.2792
334.10 0.2796
334.20 0.28
334.30 0.2804
334.40 0.2808
334.50 0.2812
334.60 0.2816
334.70 0.282
334.80 0.2824
334.90 0.2828
335.00 0.2832
335.10 0.2836
335.20 0.2841
335.30 0.2845
335.40 0.2849
335.50 0.2853
335.60 0.2857
335.70 0.2861
335.80 0.2865
335.90 0.2869
336.00 0.2873
336.10 0.2877
336.20 0.2881
336.30 0.2885
336.40 0.2889
336.50 0.2893
336.60 0.2897
336.70 0.2901
336.80 0.2905
336.90 0.2909
337.00 0.2914
337.10 0.2918
337.20 0.2922
337.30 0.2926
337.40 0.293
337.50 0.2934
337.60 0.2938
337.70 0.2942
337.80 0.2946
337.90 0.295
338.00 0.2954
338.10 0.2958
338.20 0.2962
338.30 0.2967
338.40 0.2971
338.50 0.2975
338.60 0.2979
338.70 0.2983
338.80 0.2987
338.90 0.2991
339.00 0.2996
339.10 0.3
339.20 0.3004
339.30 0.3008
339.40 0.3012
339.50 0.3016
339.60 0.302
339.70 0.3024
339.80 0.3028
339.90 0.3032
340.00 0.3036
340.10 0.3041
340.20 0.3045
340.30 0.3049
340.40 0.3053
340.50 0.3057
340.60 0.3062
340.70 0.3066
340.80 0.307
340.90 0.3074
341.00 0.3078
341.10 0.3082
341.20 0.3087
341.30 0.3091
341.40 0.3095
341.50 0.3099
341.60 0.3103
341.70 0.3107
341.80 0.3111
341.90 0.3116
342.00 0.312
342.10 0.3124
342.20 0.3128
342.30 0.3132
342.40 0.3137
342.50 0.3141
342.60 0.3145
342.70 0.3149
342.80 0.3153
342.90 0.3158
343.00 0.3162
343.10 0.3166
343.20 0.317
343.30 0.3174
343.40 0.3179
343.50 0.3183
343.60 0.3187
343.70 0.3191
343.80 0.3195
343.90 0.3199
344.00 0.3204
344.10 0.3208
344.20 0.3212
344.30 0.3216
344.40 0.3221
344.50 0.3225
344.60 0.3229
344.70 0.3234
344.80 0.3238
344.90 0.3242
345.00 0.3246
345.10 0.325
345.20 0.3255
345.30 0.3259
345.40 0.3263
345.50 0.3267
345.60 0.3272
345.70 0.3276
345.80 0.328
345.90 0.3284
346.00 0.3288
346.10 0.3293
346.20 0.3297
346.30 0.3301
346.40 0.3306
346.50 0.331
346.60 0.3314
346.70 0.3318
346.80 0.3323
346.90 0.3327
347.00 0.3331
347.10 0.3336
347.20 0.334
347.30 0.3344
347.40 0.3348
347.50 0.3353
347.60 0.3357
347.70 0.3361
347.80 0.3365
347.90 0.337
348.00 0.3374
348.10 0.3378
348.20 0.3383
348.30 0.3387
348.40 0.3391
348.50 0.3396
348.60 0.34
348.70 0.3404
348.80 0.3409
348.90 0.3413
349.00 0.3417
349.10 0.3421
349.20 0.3426
349.30 0.343
349.40 0.3434
349.50 0.3439
349.60 0.3443
349.70 0.3447
349.80 0.3451
349.90 0.3456
350.00 0.346
350.10 0.3464
350.20 0.3469
350.30 0.3473
350.40 0.3478
350.50 0.3482
350.60 0.3486
350.70 0.3491
350.80 0.3495
350.90 0.3499
351.00 0.3504
351.10 0.3508
351.20 0.3512
351.30 0.3517
351.40 0.3521
351.50 0.3525
351.60 0.353
351.70 0.3534
351.80 0.3538
351.90 0.3542
352.00 0.3547
352.10 0.3551
352.20 0.3556
352.30 0.356
352.40 0.3564
352.50 0.3569
352.60 0.3573
352.70 0.3578
352.80 0.3582
352.90 0.3586
353.00 0.3591
353.10 0.3595
353.20 0.3599
353.30 0.3604
353.40 0.3608
353.50 0.3612
353.60 0.3617
353.70 0.3621
353.80 0.3625
353.90 0.363
354.00 0.3634
354.10 0.3639
354.20 0.3643
354.30 0.3648
354.40 0.3652
354.50 0.3656
354.60 0.3661
354.70 0.3665
354.80 0.367
354.90 0.3674
355.00 0.3679
355.10 0.3683
355.20 0.3687
355.30 0.3692
355.40 0.3696
355.50 0.3701
355.60 0.3705
355.70 0.3709
355.80 0.3714
355.90 0.3718
356.00 0.3722
356.10 0.3727
356.20 0.3731
356.30 0.3736
356.40 0.374
356.50 0.3745
356.60 0.3749
356.70 0.3754
356.80 0.3758
356.90 0.3763
357.00 0.3767
357.10 0.3771
357.20 0.3776
357.30 0.378
357.40 0.3785
357.50 0.3789
357.60 0.3793
357.70 0.3798
357.80 0.3802
357.90 0.3807
358.00 0.3811
358.10 0.3815
358.20 0.382
358.30 0.3825
358.40 0.3829
358.50 0.3834
358.60 0.3838
358.70 0.3842
358.80 0.3847
358.90 0.3851
359.00 0.3856
359.10 0.386
359.20 0.3865
359.30 0.3869
359.40 0.3874
359.50 0.3878
359.60 0.3883
359.70 0.3887
359.80 0.3891
359.90 0.3896
360.00 0.39
360.10 0.3905
360.20 0.3909
360.30 0.3914
360.40 0.3918
360.50 0.3923
360.60 0.3927
360.70 0.3932
360.80 0.3936
360.90 0.3941
361.00 0.3945
361.10 0.395
361.20 0.3954
361.30 0.3959
361.40 0.3963
361.50 0.3968
361.60 0.3972
361.70 0.3977
361.80 0.3981
361.90 0.3985
362.00 0.399
362.10 0.3994
362.20 0.3999
362.30 0.4004
362.40 0.4008
362.50 0.4013
362.60 0.4017
362.70 0.4022
362.80 0.4026
362.90 0.4031
363.00 0.4035
363.10 0.404
363.20 0.4044
363.30 0.4049
363.40 0.4053
363.50 0.4058
363.60 0.4062
363.70 0.4067
363.80 0.4071
363.90 0.4076
364.00 0.4081
364.10 0.4085
364.20 0.409
364.30 0.4094
364.40 0.4099
364.50 0.4103
364.60 0.4108
364.70 0.4112
364.80 0.4117
364.90 0.4121
365.00 0.4126
365.10 0.413
365.20 0.4135
365.30 0.4139
365.40 0.4144
365.50 0.4148
365.60 0.4153
365.70 0.4157
365.80 0.4162
365.90 0.4166
366.00 0.4171
366.10 0.4176
366.20 0.418
366.30 0.4185
366.40 0.4189
366.50 0.4194
366.60 0.4199
366.70 0.4203
366.80 0.4208
366.90 0.4212
367.00 0.4217
367.10 0.4221
367.20 0.4226
367.30 0.4231
367.40 0.4235
367.50 0.424
367.60 0.4244
367.70 0.4249
367.80 0.4253
367.90 0.4258
368.00 0.4262
368.10 0.4267
368.20 0.4272
368.30 0.4276
368.40 0.4281
368.50 0.4285
368.60 0.429
368.70 0.4295
368.80 0.4299
368.90 0.4304
369.00 0.4308
369.10 0.4313
369.20 0.4317
369.30 0.4322
369.40 0.4327
369.50 0.4331
369.60 0.4336
369.70 0.434
369.80 0.4345
369.90 0.4349
370.00 0.4354
370.10 0.4358
370.20 0.4363
370.30 0.4368
370.40 0.4372
370.50 0.4377
370.60 0.4382
370.70 0.4386
370.80 0.4391
370.90 0.4395
371.00 0.44
371.10 0.4405
371.20 0.4409
371.30 0.4414
371.40 0.4418
371.50 0.4423
371.60 0.4428
371.70 0.4432
371.80 0.4437
371.90 0.4441
372.00 0.4446
372.10 0.445
372.20 0.4455
372.30 0.446
372.40 0.4464
372.50 0.4469
372.60 0.4474
372.70 0.4478
372.80 0.4483
372.90 0.4488
373.00 0.4492
373.10 0.4497
373.20 0.4501
373.30 0.4506
373.40 0.4511
373.50 0.4515
373.60 0.452
373.70 0.4524
373.80 0.4529
373.90 0.4533
374.00 0.4538
374.10 0.4543
374.20 0.4547
374.30 0.4552
374.40 0.4557
374.50 0.4561
374.60 0.4566
374.70 0.4571
374.80 0.4575
374.90 0.458
375.00 0.4585
375.10 0.4589
375.20 0.4594
375.30 0.4598
375.40 0.4603
375.50 0.4608
375.60 0.4612
375.70 0.4617
375.80 0.4621
375.90 0.4626
376.00 0.4631
376.10 0.4635
376.20 0.464
376.30 0.4645
376.40 0.4649
376.50 0.4654
376.60 0.4659
376.70 0.4663
376.80 0.4668
376.90 0.4672
377.00 0.4677
377.10 0.4682
377.20 0.4686
377.30 0.4691
377.40 0.4696
377.50 0.47
377.60 0.4705
377.70 0.471
377.80 0.4714
377.90 0.4719
378.00 0.4724
378.10 0.4728
378.20 0.4733
378.30 0.4738
378.40 0.4742
378.50 0.4747
378.60 0.4752
378.70 0.4756
378.80 0.4761
378.90 0.4766
379.00 0.477
379.10 0.4775
379.20 0.478
379.30 0.4784
379.40 0.4789
379.50 0.4793
379.60 0.4798
379.70 0.4803
379.80 0.4807
379.90 0.4812
380.00 0.4817
380.10 0.4821
380.20 0.4826
380.30 0.4831
380.40 0.4836
380.50 0.484
380.60 0.4845
380.70 0.485
380.80 0.4854
380.90 0.4859
381.00 0.4864
381.10 0.4868
381.20 0.4873
381.30 0.4878
381.40 0.4882
381.50 0.4887
381.60 0.4891
381.70 0.4896
381.80 0.4901
381.90 0.4906
382.00 0.491
382.10 0.4915
382.20 0.4919
382.30 0.4924
382.40 0.4929
382.50 0.4934
382.60 0.4938
382.70 0.4943
382.80 0.4948
382.90 0.4952
383.00 0.4957
383.10 0.4962
383.20 0.4966
383.30 0.4971
383.40 0.4976
383.50 0.498
383.60 0.4985
383.70 0.499
383.80 0.4995
383.90 0.4999
384.00 0.5004
384.10 0.5009
384.20 0.5013
384.30 0.5018
384.40 0.5023
384.50 0.5027
384.60 0.5032
384.70 0.5037
384.80 0.5041
384.90 0.5046
385.00 0.5051
385.10 0.5055
385.20 0.506
385.30 0.5065
385.40 0.5069
385.50 0.5074
385.60 0.5079
385.70 0.5084
385.80 0.5088
385.90 0.5093
386.00 0.5098
386.10 0.5102
386.20 0.5107
386.30 0.5112
386.40 0.5116
386.50 0.5121
386.60 0.5126
386.70 0.5131
386.80 0.5135
386.90 0.514
387.00 0.5145
387.10 0.5149
387.20 0.5154
387.30 0.5159
387.40 0.5163
387.50 0.5168
387.60 0.5173
387.70 0.5177
387.80 0.5182
387.90 0.5187
388.00 0.5191
388.10 0.5196
388.20 0.5201
388.30 0.5206
388.40 0.521
388.50 0.5215
388.60 0.522
388.70 0.5224
388.80 0.5229
388.90 0.5234
389.00 0.5239
389.10 0.5243
389.20 0.5248
389.30 0.5253
389.40 0.5257
389.50 0.5262
389.60 0.5267
389.70 0.5271
389.80 0.5276
389.90 0.5281
390.00 0.5286
390.10 0.529
390.20 0.5295
390.30 0.53
390.40 0.5305
390.50 0.5309
390.60 0.5314
390.70 0.5319
390.80 0.5323
390.90 0.5328
391.00 0.5333
391.10 0.5337
391.20 0.5342
391.30 0.5347
391.40 0.5352
391.50 0.5356
391.60 0.5361
391.70 0.5366
391.80 0.537
391.90 0.5375
392.00 0.538
392.10 0.5384
392.20 0.5389
392.30 0.5394
392.40 0.5399
392.50 0.5403
392.60 0.5408
392.70 0.5413
392.80 0.5417
392.90 0.5422
393.00 0.5427
393.10 0.5432
393.20 0.5436
393.30 0.5441
393.40 0.5446
393.50 0.5451
393.60 0.5455
393.70 0.546
393.80 0.5465
393.90 0.5469
394.00 0.5474
394.10 0.5479
394.20 0.5483
394.30 0.5488
394.40 0.5493
394.50 0.5498
394.60 0.5502
394.70 0.5507
394.80 0.5512
394.90 0.5516
395.00 0.5521
395.10 0.5526
395.20 0.5531
395.30 0.5535
395.40 0.554
395.50 0.5545
395.60 0.555
395.70 0.5554
395.80 0.5559
395.90 0.5564
396.00 0.5568
396.10 0.5573
396.20 0.5578
396.30 0.5583
396.40 0.5587
396.50 0.5592
396.60 0.5597
396.70 0.5601
396.80 0.5606
396.90 0.5611
397.00 0.5616
397.10 0.562
397.20 0.5625
397.30 0.563
397.40 0.5634
397.50 0.5639
397.60 0.5644
397.70 0.5649
397.80 0.5653
397.90 0.5658
398.00 0.5663
398.10 0.5667
398.20 0.5672
398.30 0.5677
398.40 0.5682
398.50 0.5686
398.60 0.5691
398.70 0.5696
398.80 0.57
398.90 0.5705
399.00 0.571
399.10 0.5714
399.20 0.5719
399.30 0.5724
399.40 0.5729
399.50 0.5733
399.60 0.5738
399.70 0.5743
399.80 0.5747
399.90 0.5752
400.00 0.5757
400.10 0.5762
400.20 0.5766
400.30 0.5771
400.40 0.5776
400.50 0.5781
400.60 0.5785
400.70 0.579
400.80 0.5795
400.90 0.5799
401.00 0.5804
401.10 0.5809
401.20 0.5813
401.30 0.5818
401.40 0.5823
401.50 0.5828
401.60 0.5832
401.70 0.5837
401.80 0.5842
401.90 0.5846
402.00 0.5851
402.10 0.5856
402.20 0.5861
402.30 0.5865
402.40 0.587
402.50 0.5875
402.60 0.5879
402.70 0.5884
402.80 0.5889
402.90 0.5893
403.00 0.5898
403.10 0.5903
403.20 0.5908
403.30 0.5912
403.40 0.5917
403.50 0.5922
403.60 0.5927
403.70 0.5931
403.80 0.5936
403.90 0.5941
404.00 0.5945
404.10 0.595
404.20 0.5955
404.30 0.5959
404.40 0.5964
404.50 0.5969
404.60 0.5974
404.70 0.5978
404.80 0.5983
404.90 0.5988
405.00 0.5992
405.10 0.5997
405.20 0.6002
405.30 0.6007
405.40 0.6011
405.50 0.6016
405.60 0.6021
405.70 0.6025
405.80 0.603
405.90 0.6035
406.00 0.6039
406.10 0.6044
406.20 0.6049
406.30 0.6054
406.40 0.6058
406.50 0.6063
406.60 0.6068
406.70 0.6072
406.80 0.6077
406.90 0.6082
407.00 0.6086
407.10 0.6091
407.20 0.6096
407.30 0.6101
407.40 0.6105
407.50 0.611
407.60 0.6115
407.70 0.6119
407.80 0.6124
407.90 0.6129
408.00 0.6133
408.10 0.6138
408.20 0.6143
408.30 0.6147
408.40 0.6152
408.50 0.6157
408.60 0.6162
408.70 0.6166
408.80 0.6171
408.90 0.6176
409.00 0.618
409.10 0.6185
409.20 0.619
409.30 0.6194
409.40 0.6199
409.50 0.6204
409.60 0.6208
409.70 0.6213
409.80 0.6218
409.90 0.6223
410.00 0.6227
410.10 0.6232
410.20 0.6237
410.30 0.6241
410.40 0.6246
410.50 0.6251
410.60 0.6255
410.70 0.626
410.80 0.6265
410.90 0.6269
411.00 0.6274
411.10 0.6279
411.20 0.6284
411.30 0.6288
411.40 0.6293
411.50 0.6298
411.60 0.6302
411.70 0.6307
411.80 0.6312
411.90 0.6316
412.00 0.6321
412.10 0.6326
412.20 0.633
412.30 0.6335
412.40 0.634
412.50 0.6344
412.60 0.6349
412.70 0.6354
412.80 0.6358
412.90 0.6363
413.00 0.6368
413.10 0.6372
413.20 0.6377
413.30 0.6382
413.40 0.6387
413.50 0.6391
413.60 0.6396
413.70 0.64
413.80 0.6405
413.90 0.641
414.00 0.6414
414.10 0.6419
414.20 0.6424
414.30 0.6428
414.40 0.6433
414.50 0.6438
414.60 0.6443
414.70 0.6447
414.80 0.6452
414.90 0.6457
415.00 0.6461
415.10 0.6466
415.20 0.647
415.30 0.6475
415.40 0.648
415.50 0.6484
415.60 0.6489
415.70 0.6494
415.80 0.6498
415.90 0.6503
416.00 0.6508
416.10 0.6512
416.20 0.6517
416.30 0.6522
416.40 0.6526
416.50 0.6531
416.60 0.6536
416.70 0.654
416.80 0.6545
416.90 0.655
417.00 0.6554
417.10 0.6559
417.20 0.6564
417.30 0.6568
417.40 0.6573
417.50 0.6578
417.60 0.6582
417.70 0.6587
417.80 0.6592
417.90 0.6596
418.00 0.6601
418.10 0.6605
418.20 0.661
418.30 0.6615
418.40 0.6619
418.50 0.6624
418.60 0.6629
418.70 0.6633
418.80 0.6638
418.90 0.6643
419.00 0.6647
419.10 0.6652
419.20 0.6656
419.30 0.6661
419.40 0.6666
419.50 0.667
419.60 0.6675
419.70 0.668
419.80 0.6684
419.90 0.6689
420.00 0.6694
420.10 0.6698
420.20 0.6703
420.30 0.6708
420.40 0.6712
420.50 0.6717
420.60 0.6721
420.70 0.6726
420.80 0.6731
420.90 0.6735
421.00 0.674
421.10 0.6745
421.20 0.6749
421.30 0.6754
421.40 0.6758
421.50 0.6763
421.60 0.6768
421.70 0.6772
421.80 0.6777
421.90 0.6782
422.00 0.6786
422.10 0.6791
422.20 0.6795
422.30 0.68
422.40 0.6805
422.50 0.6809
422.60 0.6814
422.70 0.6819
422.80 0.6823
422.90 0.6828
423.00 0.6832
423.10 0.6837
423.20 0.6842
423.30 0.6846
423.40 0.6851
423.50 0.6856
423.60 0.686
423.70 0.6865
423.80 0.6869
423.90 0.6874
424.00 0.6878
424.10 0.6883
424.20 0.6888
424.30 0.6892
424.40 0.6897
424.50 0.6902
424.60 0.6906
424.70 0.6911
424.80 0.6915
424.90 0.692
425.00 0.6924
425.10 0.6929
425.20 0.6934
425.30 0.6938
425.40 0.6943
425.50 0.6948
425.60 0.6952
425.70 0.6957
425.80 0.6961
425.90 0.6966
426.00 0.6971
426.10 0.6975
426.20 0.698
426.30 0.6984
426.40 0.6989
426.50 0.6993
426.60 0.6998
426.70 0.7003
426.80 0.7007
426.90 0.7012
427.00 0.7016
427.10 0.7021
427.20 0.7025
427.30 0.703
427.40 0.7035
427.50 0.7039
427.60 0.7044
427.70 0.7048
427.80 0.7053
427.90 0.7058
428.00 0.7062
428.10 0.7067
428.20 0.7071
428.30 0.7076
428.40 0.708
428.50 0.7085
428.60 0.7089
428.70 0.7094
428.80 0.7099
428.90 0.7103
429.00 0.7108
429.10 0.7112
429.20 0.7117
429.30 0.7121
429.40 0.7126
429.50 0.7131
429.60 0.7135
429.70 0.714
429.80 0.7144
429.90 0.7149
430.00 0.7153
430.10 0.7158
430.20 0.7162
430.30 0.7167
430.40 0.7172
430.50 0.7176
430.60 0.7181
430.70 0.7185
430.80 0.719
430.90 0.7194
431.00 0.7199
431.10 0.7203
431.20 0.7208
431.30 0.7212
431.40 0.7217
431.50 0.7222
431.60 0.7226
431.70 0.7231
431.80 0.7235
431.90 0.724
432.00 0.7244
432.10 0.7249
432.20 0.7253
432.30 0.7258
432.40 0.7262
432.50 0.7267
432.60 0.7271
432.70 0.7276
432.80 0.728
432.90 0.7285
433.00 0.7289
433.10 0.7294
433.20 0.7299
433.30 0.7303
433.40 0.7308
433.50 0.7312
433.60 0.7317
433.70 0.7321
433.80 0.7326
433.90 0.733
434.00 0.7335
434.10 0.7339
434.20 0.7344
434.30 0.7348
434.40 0.7353
434.50 0.7357
434.60 0.7362
434.70 0.7366
434.80 0.7371
434.90 0.7375
435.00 0.738
435.10 0.7384
435.20 0.7389
435.30 0.7393
435.40 0.7398
435.50 0.7402
435.60 0.7407
435.70 0.7411
435.80 0.7416
435.90 0.742
436.00 0.7425
436.10 0.7429
436.20 0.7434
436.30 0.7438
436.40 0.7443
436.50 0.7447
436.60 0.7452
436.70 0.7456
436.80 0.7461
436.90 0.7465
437.00 0.747
437.10 0.7474
437.20 0.7479
437.30 0.7483
437.40 0.7488
437.50 0.7492
437.60 0.7496
437.70 0.7501
437.80 0.7505
437.90 0.751
438.00 0.7514
438.10 0.7519
438.20 0.7523
438.30 0.7528
438.40 0.7532
438.50 0.7537
438.60 0.7541
438.70 0.7546
438.80 0.755
438.90 0.7555
439.00 0.7559
439.10 0.7564
439.20 0.7568
439.30 0.7572
439.40 0.7577
439.50 0.7581
439.60 0.7586
439.70 0.759
439.80 0.7595
439.90 0.7599
440.00 0.7604
440.10 0.7608
440.20 0.7613
440.30 0.7617
440.40 0.7621
440.50 0.7626
440.60 0.763
440.70 0.7635
440.80 0.7639
440.90 0.7644
441.00 0.7648
441.10 0.7653
441.20 0.7657
441.30 0.7661
441.40 0.7666
441.50 0.767
441.60 0.7675
441.70 0.7679
441.80 0.7683
441.90 0.7688
442.00 0.7692
442.10 0.7697
442.20 0.7701
442.30 0.7706
442.40 0.771
442.50 0.7714
442.60 0.7719
442.70 0.7723
442.80 0.7728
442.90 0.7732
