# Version 2.1 - nm, norm@500 to 1, cut digits, bergeron_15000_95.dat_15000
# Wavelength(nm)  Flambda(ergs/cm^s/s/nm)
300.00 2.842
300.10 2.839
300.20 2.837
300.30 2.835
300.40 2.833
300.50 2.831
300.60 2.828
300.70 2.826
300.80 2.824
300.90 2.822
301.00 2.82
301.10 2.817
301.20 2.815
301.30 2.813
301.40 2.811
301.50 2.809
301.60 2.807
301.70 2.804
301.80 2.802
301.90 2.8
302.00 2.798
302.10 2.796
302.20 2.794
302.30 2.792
302.40 2.789
302.50 2.787
302.60 2.785
302.70 2.783
302.80 2.781
302.90 2.779
303.00 2.777
303.10 2.774
303.20 2.772
303.30 2.77
303.40 2.768
303.50 2.766
303.60 2.764
303.70 2.762
303.80 2.76
303.90 2.757
304.00 2.755
304.10 2.753
304.20 2.751
304.30 2.749
304.40 2.747
304.50 2.745
304.60 2.743
304.70 2.741
304.80 2.738
304.90 2.736
305.00 2.734
305.10 2.732
305.20 2.73
305.30 2.728
305.40 2.726
305.50 2.724
305.60 2.722
305.70 2.72
305.80 2.718
305.90 2.715
306.00 2.713
306.10 2.711
306.20 2.709
306.30 2.707
306.40 2.705
306.50 2.703
306.60 2.701
306.70 2.699
306.80 2.697
306.90 2.695
307.00 2.693
307.10 2.691
307.20 2.688
307.30 2.686
307.40 2.684
307.50 2.682
307.60 2.68
307.70 2.678
307.80 2.676
307.90 2.674
308.00 2.672
308.10 2.67
308.20 2.668
308.30 2.666
308.40 2.664
308.50 2.662
308.60 2.66
308.70 2.658
308.80 2.656
308.90 2.654
309.00 2.652
309.10 2.65
309.20 2.648
309.30 2.646
309.40 2.644
309.50 2.642
309.60 2.64
309.70 2.638
309.80 2.636
309.90 2.634
310.00 2.632
310.10 2.63
310.20 2.628
310.30 2.626
310.40 2.624
310.50 2.622
310.60 2.62
310.70 2.618
310.80 2.616
310.90 2.614
311.00 2.612
311.10 2.61
311.20 2.608
311.30 2.606
311.40 2.604
311.50 2.602
311.60 2.6
311.70 2.598
311.80 2.596
311.90 2.594
312.00 2.592
312.10 2.59
312.20 2.588
312.30 2.586
312.40 2.584
312.50 2.582
312.60 2.58
312.70 2.578
312.80 2.576
312.90 2.574
313.00 2.572
313.10 2.571
313.20 2.569
313.30 2.567
313.40 2.565
313.50 2.563
313.60 2.561
313.70 2.559
313.80 2.557
313.90 2.555
314.00 2.553
314.10 2.551
314.20 2.549
314.30 2.547
314.40 2.545
314.50 2.543
314.60 2.542
314.70 2.54
314.80 2.538
314.90 2.536
315.00 2.534
315.10 2.532
315.20 2.53
315.30 2.528
315.40 2.526
315.50 2.524
315.60 2.522
315.70 2.52
315.80 2.519
315.90 2.517
316.00 2.515
316.10 2.513
316.20 2.511
316.30 2.509
316.40 2.507
316.50 2.505
316.60 2.503
316.70 2.502
316.80 2.5
316.90 2.498
317.00 2.496
317.10 2.494
317.20 2.492
317.30 2.49
317.40 2.488
317.50 2.486
317.60 2.485
317.70 2.483
317.80 2.481
317.90 2.479
318.00 2.477
318.10 2.475
318.20 2.473
318.30 2.472
318.40 2.47
318.50 2.468
318.60 2.466
318.70 2.464
318.80 2.462
318.90 2.46
319.00 2.459
319.10 2.457
319.20 2.455
319.30 2.453
319.40 2.451
319.50 2.449
319.60 2.448
319.70 2.446
319.80 2.444
319.90 2.442
320.00 2.44
320.10 2.438
320.20 2.437
320.30 2.435
320.40 2.433
320.50 2.431
320.60 2.429
320.70 2.428
320.80 2.426
320.90 2.424
321.00 2.422
321.10 2.42
321.20 2.418
321.30 2.417
321.40 2.415
321.50 2.413
321.60 2.411
321.70 2.409
321.80 2.408
321.90 2.406
322.00 2.404
322.10 2.402
322.20 2.4
322.30 2.399
322.40 2.397
322.50 2.395
322.60 2.393
322.70 2.392
322.80 2.39
322.90 2.388
323.00 2.386
323.10 2.384
323.20 2.383
323.30 2.381
323.40 2.379
323.50 2.377
323.60 2.376
323.70 2.374
323.80 2.372
323.90 2.37
324.00 2.369
324.10 2.367
324.20 2.365
324.30 2.363
324.40 2.362
324.50 2.36
324.60 2.358
324.70 2.356
324.80 2.355
324.90 2.353
325.00 2.351
325.10 2.349
325.20 2.348
325.30 2.346
325.40 2.344
325.50 2.342
325.60 2.341
325.70 2.339
325.80 2.337
325.90 2.335
326.00 2.334
326.10 2.332
326.20 2.33
326.30 2.328
326.40 2.327
326.50 2.325
326.60 2.323
326.70 2.322
326.80 2.32
326.90 2.318
327.00 2.316
327.10 2.315
327.20 2.313
327.30 2.311
327.40 2.31
327.50 2.308
327.60 2.306
327.70 2.304
327.80 2.303
327.90 2.301
328.00 2.299
328.10 2.298
328.20 2.296
328.30 2.294
328.40 2.293
328.50 2.291
328.60 2.289
328.70 2.287
328.80 2.286
328.90 2.284
329.00 2.282
329.10 2.281
329.20 2.279
329.30 2.277
329.40 2.276
329.50 2.274
329.60 2.272
329.70 2.271
329.80 2.269
329.90 2.267
330.00 2.266
330.10 2.264
330.20 2.262
330.30 2.261
330.40 2.259
330.50 2.257
330.60 2.256
330.70 2.254
330.80 2.252
330.90 2.251
331.00 2.249
331.10 2.247
331.20 2.246
331.30 2.244
331.40 2.242
331.50 2.241
331.60 2.239
331.70 2.237
331.80 2.236
331.90 2.234
332.00 2.232
332.10 2.231
332.20 2.229
332.30 2.228
332.40 2.226
332.50 2.224
332.60 2.223
332.70 2.221
332.80 2.219
332.90 2.218
333.00 2.216
333.10 2.215
333.20 2.213
333.30 2.211
333.40 2.21
333.50 2.208
333.60 2.206
333.70 2.205
333.80 2.203
333.90 2.202
334.00 2.2
334.10 2.198
334.20 2.197
334.30 2.195
334.40 2.194
334.50 2.192
334.60 2.19
334.70 2.189
334.80 2.187
334.90 2.186
335.00 2.184
335.10 2.182
335.20 2.181
335.30 2.179
335.40 2.178
335.50 2.176
335.60 2.174
335.70 2.173
335.80 2.171
335.90 2.17
336.00 2.168
336.10 2.166
336.20 2.165
336.30 2.163
336.40 2.162
336.50 2.16
336.60 2.159
336.70 2.157
336.80 2.155
336.90 2.154
337.00 2.152
337.10 2.151
337.20 2.149
337.30 2.148
337.40 2.146
337.50 2.144
337.60 2.143
337.70 2.141
337.80 2.14
337.90 2.138
338.00 2.137
338.10 2.135
338.20 2.134
338.30 2.132
338.40 2.13
338.50 2.129
338.60 2.127
338.70 2.126
338.80 2.124
338.90 2.123
339.00 2.121
339.10 2.12
339.20 2.118
339.30 2.117
339.40 2.115
339.50 2.114
339.60 2.112
339.70 2.111
339.80 2.109
339.90 2.107
340.00 2.106
340.10 2.104
340.20 2.103
340.30 2.101
340.40 2.1
340.50 2.098
340.60 2.097
340.70 2.095
340.80 2.094
340.90 2.092
341.00 2.091
341.10 2.089
341.20 2.088
341.30 2.086
341.40 2.085
341.50 2.083
341.60 2.082
341.70 2.08
341.80 2.079
341.90 2.077
342.00 2.076
342.10 2.074
342.20 2.073
342.30 2.071
342.40 2.07
342.50 2.068
342.60 2.067
342.70 2.065
342.80 2.064
342.90 2.062
343.00 2.061
343.10 2.059
343.20 2.058
343.30 2.056
343.40 2.055
343.50 2.053
343.60 2.052
343.70 2.05
343.80 2.049
343.90 2.047
344.00 2.046
344.10 2.044
344.20 2.043
344.30 2.041
344.40 2.04
344.50 2.038
344.60 2.037
344.70 2.036
344.80 2.034
344.90 2.033
345.00 2.031
345.10 2.03
345.20 2.028
345.30 2.027
345.40 2.025
345.50 2.024
345.60 2.022
345.70 2.021
345.80 2.019
345.90 2.018
346.00 2.017
346.10 2.015
346.20 2.014
346.30 2.012
346.40 2.011
346.50 2.009
346.60 2.008
346.70 2.006
346.80 2.005
346.90 2.004
347.00 2.002
347.10 2.001
347.20 1.999
347.30 1.998
347.40 1.996
347.50 1.995
347.60 1.994
347.70 1.992
347.80 1.991
347.90 1.989
348.00 1.988
348.10 1.986
348.20 1.985
348.30 1.984
348.40 1.982
348.50 1.981
348.60 1.979
348.70 1.978
348.80 1.977
348.90 1.975
349.00 1.974
349.10 1.972
349.20 1.971
349.30 1.97
349.40 1.968
349.50 1.967
349.60 1.965
349.70 1.964
349.80 1.963
349.90 1.961
350.00 1.96
350.10 1.958
350.20 1.957
350.30 1.956
350.40 1.954
350.50 1.953
350.60 1.951
350.70 1.95
350.80 1.949
350.90 1.947
351.00 1.946
351.10 1.944
351.20 1.943
351.30 1.942
351.40 1.94
351.50 1.939
351.60 1.937
351.70 1.936
351.80 1.935
351.90 1.933
352.00 1.932
352.10 1.931
352.20 1.929
352.30 1.928
352.40 1.926
352.50 1.925
352.60 1.924
352.70 1.922
352.80 1.921
352.90 1.92
353.00 1.918
353.10 1.917
353.20 1.915
353.30 1.914
353.40 1.913
353.50 1.911
353.60 1.91
353.70 1.909
353.80 1.907
353.90 1.906
354.00 1.905
354.10 1.903
354.20 1.902
354.30 1.901
354.40 1.899
354.50 1.898
354.60 1.897
354.70 1.895
354.80 1.894
354.90 1.893
355.00 1.891
355.10 1.89
355.20 1.889
355.30 1.887
355.40 1.886
355.50 1.885
355.60 1.883
355.70 1.882
355.80 1.881
355.90 1.879
356.00 1.878
356.10 1.877
356.20 1.875
356.30 1.874
356.40 1.873
356.50 1.871
356.60 1.87
356.70 1.869
356.80 1.867
356.90 1.866
357.00 1.865
357.10 1.863
357.20 1.862
357.30 1.861
357.40 1.859
357.50 1.858
357.60 1.857
357.70 1.855
357.80 1.854
357.90 1.853
358.00 1.852
358.10 1.85
358.20 1.849
358.30 1.848
358.40 1.846
358.50 1.845
358.60 1.844
358.70 1.842
358.80 1.841
358.90 1.84
359.00 1.839
359.10 1.837
359.20 1.836
359.30 1.835
359.40 1.833
359.50 1.832
359.60 1.831
359.70 1.83
359.80 1.828
359.90 1.827
360.00 1.826
360.10 1.824
360.20 1.823
360.30 1.822
360.40 1.821
360.50 1.819
360.60 1.818
360.70 1.817
360.80 1.815
360.90 1.814
361.00 1.813
361.10 1.812
361.20 1.81
361.30 1.809
361.40 1.808
361.50 1.807
361.60 1.805
361.70 1.804
361.80 1.803
361.90 1.801
362.00 1.8
362.10 1.799
362.20 1.798
362.30 1.796
362.40 1.795
362.50 1.794
362.60 1.793
362.70 1.791
362.80 1.79
362.90 1.789
363.00 1.788
363.10 1.786
363.20 1.785
363.30 1.783
363.40 1.782
363.50 1.78
363.60 1.779
363.70 1.777
363.80 1.776
363.90 1.774
364.00 1.773
364.10 1.772
364.20 1.77
364.30 1.769
364.40 1.767
364.50 1.766
364.60 1.764
364.70 1.763
364.80 1.761
364.90 1.76
365.00 1.758
365.10 1.757
365.20 1.755
365.30 1.754
365.40 1.752
365.50 1.751
365.60 1.749
365.70 1.748
365.80 1.746
365.90 1.745
366.00 1.743
366.10 1.742
366.20 1.74
366.30 1.739
366.40 1.738
366.50 1.737
366.60 1.735
366.70 1.734
366.80 1.733
366.90 1.732
367.00 1.73
367.10 1.729
367.20 1.728
367.30 1.726
367.40 1.725
367.50 1.724
367.60 1.723
367.70 1.721
367.80 1.72
367.90 1.719
368.00 1.718
368.10 1.716
368.20 1.715
368.30 1.714
368.40 1.712
368.50 1.711
368.60 1.71
368.70 1.708
368.80 1.707
368.90 1.706
369.00 1.705
369.10 1.703
369.20 1.702
369.30 1.701
369.40 1.7
369.50 1.698
369.60 1.697
369.70 1.696
369.80 1.694
369.90 1.693
370.00 1.692
370.10 1.691
370.20 1.689
370.30 1.688
370.40 1.687
370.50 1.686
370.60 1.684
370.70 1.683
370.80 1.682
370.90 1.681
371.00 1.679
371.10 1.678
371.20 1.677
371.30 1.676
371.40 1.674
371.50 1.673
371.60 1.672
371.70 1.671
371.80 1.67
371.90 1.668
372.00 1.667
372.10 1.666
372.20 1.665
372.30 1.664
372.40 1.662
372.50 1.661
372.60 1.66
372.70 1.659
372.80 1.658
372.90 1.657
373.00 1.655
373.10 1.654
373.20 1.653
373.30 1.652
373.40 1.651
373.50 1.65
373.60 1.649
373.70 1.647
373.80 1.646
373.90 1.645
374.00 1.644
374.10 1.643
374.20 1.642
374.30 1.641
374.40 1.64
374.50 1.639
374.60 1.637
374.70 1.636
374.80 1.635
374.90 1.634
375.00 1.633
375.10 1.632
375.20 1.631
375.30 1.63
375.40 1.629
375.50 1.628
375.60 1.627
375.70 1.626
375.80 1.625
375.90 1.624
376.00 1.622
376.10 1.622
376.20 1.621
376.30 1.62
376.40 1.619
376.50 1.618
376.60 1.617
376.70 1.616
376.80 1.615
376.90 1.614
377.00 1.613
377.10 1.612
377.20 1.61
377.30 1.609
377.40 1.608
377.50 1.607
377.60 1.606
377.70 1.605
377.80 1.604
377.90 1.603
378.00 1.602
378.10 1.601
378.20 1.599
378.30 1.598
378.40 1.597
378.50 1.595
378.60 1.594
378.70 1.593
378.80 1.591
378.90 1.59
379.00 1.589
379.10 1.588
379.20 1.587
379.30 1.585
379.40 1.584
379.50 1.583
379.60 1.582
379.70 1.581
379.80 1.58
379.90 1.579
380.00 1.578
380.10 1.578
380.20 1.577
380.30 1.577
380.40 1.576
380.50 1.576
380.60 1.576
380.70 1.575
380.80 1.575
380.90 1.574
381.00 1.574
381.10 1.573
381.20 1.573
381.30 1.572
381.40 1.572
381.50 1.571
381.60 1.57
381.70 1.569
381.80 1.568
381.90 1.567
382.00 1.566
382.10 1.565
382.20 1.563
382.30 1.561
382.40 1.559
382.50 1.558
382.60 1.556
382.70 1.554
382.80 1.552
382.90 1.55
383.00 1.548
383.10 1.547
383.20 1.545
383.30 1.543
383.40 1.542
383.50 1.541
383.60 1.54
383.70 1.541
383.80 1.541
383.90 1.542
384.00 1.542
384.10 1.543
384.20 1.545
384.30 1.546
384.40 1.547
384.50 1.548
384.60 1.549
384.70 1.549
384.80 1.55
384.90 1.55
385.00 1.55
385.10 1.55
385.20 1.55
385.30 1.55
385.40 1.55
385.50 1.549
385.60 1.549
385.70 1.548
385.80 1.548
385.90 1.547
386.00 1.546
386.10 1.545
386.20 1.544
386.30 1.542
386.40 1.541
386.50 1.539
386.60 1.538
386.70 1.536
386.80 1.534
386.90 1.532
387.00 1.53
387.10 1.528
387.20 1.526
387.30 1.523
387.40 1.521
387.50 1.518
387.60 1.515
387.70 1.513
387.80 1.509
387.90 1.506
388.00 1.503
388.10 1.499
388.20 1.495
388.30 1.491
388.40 1.486
388.50 1.482
388.60 1.478
388.70 1.476
388.80 1.474
388.90 1.473
389.00 1.473
389.10 1.475
389.20 1.476
389.30 1.479
389.40 1.483
389.50 1.487
389.60 1.491
389.70 1.495
389.80 1.498
389.90 1.501
390.00 1.504
390.10 1.506
390.20 1.509
390.30 1.511
390.40 1.513
390.50 1.515
390.60 1.517
390.70 1.519
390.80 1.52
390.90 1.522
391.00 1.523
391.10 1.524
391.20 1.525
391.30 1.526
391.40 1.527
391.50 1.527
391.60 1.528
391.70 1.528
391.80 1.528
391.90 1.528
392.00 1.528
392.10 1.527
392.20 1.527
392.30 1.526
392.40 1.526
392.50 1.525
392.60 1.523
392.70 1.522
392.80 1.521
392.90 1.519
393.00 1.517
393.10 1.515
393.20 1.513
393.30 1.511
393.40 1.508
393.50 1.506
393.60 1.503
393.70 1.5
393.80 1.496
393.90 1.493
394.00 1.489
394.10 1.485
394.20 1.481
394.30 1.477
394.40 1.473
394.50 1.468
394.60 1.464
394.70 1.458
394.80 1.453
394.90 1.448
395.00 1.442
395.10 1.436
395.20 1.43
395.30 1.424
395.40 1.417
395.50 1.41
395.60 1.403
395.70 1.396
395.80 1.389
395.90 1.381
396.00 1.373
396.10 1.365
396.20 1.357
396.30 1.348
396.40 1.338
396.50 1.327
396.60 1.315
396.70 1.303
396.80 1.295
396.90 1.287
397.00 1.279
397.10 1.286
397.20 1.293
397.30 1.3
397.40 1.312
397.50 1.323
397.60 1.334
397.70 1.343
397.80 1.352
397.90 1.36
398.00 1.368
398.10 1.375
398.20 1.383
398.30 1.39
398.40 1.396
398.50 1.403
398.60 1.41
398.70 1.416
398.80 1.422
398.90 1.428
399.00 1.434
399.10 1.439
399.20 1.444
399.30 1.449
399.40 1.454
399.50 1.459
399.60 1.464
399.70 1.468
399.80 1.472
399.90 1.476
400.00 1.48
400.10 1.484
400.20 1.487
400.30 1.49
400.40 1.493
400.50 1.496
400.60 1.499
400.70 1.502
400.80 1.504
400.90 1.506
401.00 1.508
401.10 1.51
401.20 1.512
401.30 1.514
401.40 1.515
401.50 1.516
401.60 1.518
401.70 1.519
401.80 1.519
401.90 1.52
402.00 1.521
402.10 1.521
402.20 1.521
402.30 1.521
402.40 1.521
402.50 1.521
402.60 1.521
402.70 1.52
402.80 1.52
402.90 1.519
403.00 1.518
403.10 1.517
403.20 1.516
403.30 1.514
403.40 1.513
403.50 1.511
403.60 1.509
403.70 1.507
403.80 1.505
403.90 1.503
404.00 1.5
404.10 1.497
404.20 1.494
404.30 1.491
404.40 1.488
404.50 1.485
404.60 1.482
404.70 1.478
404.80 1.475
404.90 1.471
405.00 1.467
405.10 1.462
405.20 1.458
405.30 1.453
405.40 1.449
405.50 1.444
405.60 1.438
405.70 1.433
405.80 1.428
405.90 1.422
406.00 1.416
406.10 1.41
406.20 1.404
406.30 1.397
406.40 1.39
406.50 1.383
406.60 1.376
406.70 1.369
406.80 1.361
406.90 1.354
407.00 1.346
407.10 1.337
407.20 1.329
407.30 1.32
407.40 1.311
407.50 1.302
407.60 1.292
407.70 1.282
407.80 1.272
407.90 1.262
408.00 1.251
408.10 1.241
408.20 1.23
408.30 1.218
408.40 1.207
408.50 1.195
408.60 1.182
408.70 1.17
408.80 1.157
408.90 1.144
409.00 1.13
409.10 1.117
409.20 1.104
409.30 1.091
409.40 1.077
409.50 1.063
409.60 1.048
409.70 1.033
409.80 1.017
409.90 1.001
410.00 0.9895
410.10 0.9825
410.20 0.98
410.30 0.9847
410.40 0.9936
410.50 1.007
410.60 1.022
410.70 1.037
410.80 1.051
410.90 1.064
411.00 1.077
411.10 1.09
411.20 1.102
411.30 1.114
411.40 1.126
411.50 1.139
411.60 1.151
411.70 1.163
411.80 1.174
411.90 1.185
412.00 1.196
412.10 1.206
412.20 1.216
412.30 1.226
412.40 1.236
412.50 1.246
412.60 1.255
412.70 1.264
412.80 1.273
412.90 1.281
413.00 1.29
413.10 1.298
413.20 1.306
413.30 1.313
413.40 1.32
413.50 1.328
413.60 1.335
413.70 1.342
413.80 1.348
413.90 1.355
414.00 1.361
414.10 1.367
414.20 1.373
414.30 1.379
414.40 1.385
414.50 1.39
414.60 1.396
414.70 1.401
414.80 1.406
414.90 1.411
415.00 1.416
415.10 1.42
415.20 1.425
415.30 1.429
415.40 1.433
415.50 1.437
415.60 1.441
415.70 1.445
415.80 1.449
415.90 1.453
416.00 1.456
416.10 1.46
416.20 1.463
416.30 1.467
416.40 1.47
416.50 1.473
416.60 1.476
416.70 1.479
416.80 1.482
416.90 1.485
417.00 1.487
417.10 1.49
417.20 1.492
417.30 1.495
417.40 1.497
417.50 1.499
417.60 1.501
417.70 1.503
417.80 1.505
417.90 1.507
418.00 1.509
418.10 1.51
418.20 1.512
418.30 1.514
418.40 1.515
418.50 1.516
418.60 1.518
418.70 1.519
418.80 1.52
418.90 1.521
419.00 1.522
419.10 1.523
419.20 1.524
419.30 1.524
419.40 1.525
419.50 1.526
419.60 1.526
419.70 1.527
419.80 1.527
419.90 1.528
420.00 1.528
420.10 1.528
420.20 1.528
420.30 1.528
420.40 1.528
420.50 1.528
420.60 1.528
420.70 1.528
420.80 1.527
420.90 1.527
421.00 1.527
421.10 1.526
421.20 1.525
421.30 1.525
421.40 1.524
421.50 1.523
421.60 1.523
421.70 1.522
421.80 1.521
421.90 1.52
422.00 1.519
422.10 1.517
422.20 1.516
422.30 1.515
422.40 1.514
422.50 1.512
422.60 1.511
422.70 1.509
422.80 1.507
422.90 1.506
423.00 1.504
423.10 1.502
423.20 1.5
423.30 1.498
423.40 1.496
423.50 1.494
423.60 1.492
423.70 1.49
423.80 1.487
423.90 1.485
424.00 1.483
424.10 1.48
424.20 1.477
424.30 1.475
424.40 1.472
424.50 1.469
424.60 1.466
424.70 1.463
424.80 1.46
424.90 1.457
425.00 1.454
425.10 1.451
425.20 1.448
425.30 1.444
425.40 1.441
425.50 1.437
425.60 1.433
425.70 1.43
425.80 1.426
425.90 1.422
426.00 1.418
426.10 1.414
426.20 1.409
426.30 1.405
426.40 1.4
426.50 1.396
426.60 1.392
426.70 1.387
426.80 1.383
426.90 1.378
427.00 1.373
427.10 1.368
427.20 1.363
427.30 1.358
427.40 1.353
427.50 1.348
427.60 1.342
427.70 1.337
427.80 1.331
427.90 1.326
428.00 1.32
428.10 1.314
428.20 1.309
428.30 1.303
428.40 1.297
428.50 1.291
428.60 1.285
428.70 1.278
428.80 1.272
428.90 1.266
429.00 1.259
429.10 1.252
429.20 1.245
429.30 1.238
429.40 1.231
429.50 1.224
429.60 1.217
429.70 1.209
429.80 1.201
429.90 1.194
430.00 1.186
430.10 1.178
430.20 1.169
430.30 1.161
430.40 1.153
430.50 1.144
430.60 1.135
430.70 1.126
430.80 1.117
430.90 1.108
431.00 1.098
431.10 1.088
431.20 1.078
431.30 1.068
431.40 1.058
431.50 1.047
431.60 1.036
431.70 1.025
431.80 1.014
431.90 1.003
432.00 0.991
432.10 0.9792
432.20 0.9669
432.30 0.9544
432.40 0.9416
432.50 0.9281
432.60 0.9143
432.70 0.9
432.80 0.8853
432.90 0.8706
433.00 0.8559
433.10 0.8414
433.20 0.8268
433.30 0.8121
433.40 0.7971
433.50 0.7818
433.60 0.7661
433.70 0.7461
433.80 0.721
433.90 0.6911
434.00 0.6606
434.10 0.6612
434.20 0.6928
434.30 0.7216
434.40 0.7455
434.50 0.7645
434.60 0.7792
434.70 0.7937
434.80 0.8079
434.90 0.8217
435.00 0.8353
435.10 0.8489
435.20 0.8627
435.30 0.8763
435.40 0.89
435.50 0.9031
435.60 0.9158
435.70 0.9281
435.80 0.9397
435.90 0.951
436.00 0.962
436.10 0.9726
436.20 0.983
436.30 0.9932
436.40 1.003
436.50 1.013
436.60 1.022
436.70 1.031
436.80 1.04
436.90 1.049
437.00 1.058
437.10 1.066
437.20 1.074
437.30 1.082
437.40 1.09
437.50 1.097
437.60 1.105
437.70 1.112
437.80 1.119
437.90 1.126
438.00 1.133
438.10 1.139
438.20 1.146
438.30 1.152
438.40 1.158
438.50 1.164
438.60 1.17
438.70 1.176
438.80 1.181
438.90 1.187
439.00 1.192
439.10 1.197
439.20 1.202
439.30 1.207
439.40 1.212
439.50 1.217
439.60 1.221
439.70 1.226
439.80 1.23
439.90 1.235
440.00 1.239
440.10 1.243
440.20 1.248
440.30 1.252
440.40 1.256
440.50 1.26
440.60 1.264
440.70 1.268
440.80 1.271
440.90 1.275
441.00 1.279
441.10 1.282
441.20 1.286
441.30 1.289
441.40 1.292
441.50 1.295
441.60 1.298
441.70 1.301
441.80 1.304
441.90 1.307
442.00 1.31
442.10 1.313
442.20 1.315
442.30 1.318
442.40 1.32
442.50 1.323
442.60 1.325
442.70 1.328
442.80 1.33
442.90 1.332
443.00 1.335
443.10 1.337
443.20 1.339
443.30 1.341
443.40 1.343
443.50 1.345
443.60 1.347
443.70 1.349
443.80 1.351
443.90 1.352
444.00 1.354
444.10 1.356
444.20 1.358
444.30 1.359
444.40 1.361
444.50 1.362
444.60 1.364
444.70 1.365
444.80 1.367
444.90 1.368
445.00 1.369
445.10 1.371
445.20 1.372
445.30 1.373
445.40 1.374
445.50 1.375
445.60 1.377
445.70 1.378
445.80 1.379
445.90 1.38
446.00 1.381
446.10 1.382
446.20 1.383
446.30 1.383
446.40 1.384
446.50 1.385
446.60 1.386
446.70 1.387
446.80 1.387
446.90 1.388
447.00 1.389
447.10 1.39
447.20 1.39
447.30 1.391
447.40 1.391
447.50 1.392
447.60 1.392
447.70 1.393
447.80 1.393
447.90 1.394
448.00 1.394
448.10 1.395
448.20 1.395
448.30 1.395
448.40 1.396
448.50 1.396
448.60 1.396
448.70 1.397
448.80 1.397
448.90 1.397
449.00 1.397
449.10 1.398
449.20 1.398
449.30 1.398
449.40 1.398
449.50 1.398
449.60 1.398
449.70 1.398
449.80 1.399
449.90 1.399
450.00 1.399
450.10 1.399
450.20 1.399
450.30 1.399
450.40 1.398
450.50 1.398
450.60 1.398
450.70 1.398
450.80 1.398
450.90 1.398
451.00 1.398
451.10 1.398
451.20 1.398
451.30 1.397
451.40 1.397
451.50 1.397
451.60 1.397
451.70 1.397
451.80 1.396
451.90 1.396
452.00 1.396
452.10 1.396
452.20 1.395
452.30 1.395
452.40 1.395
452.50 1.394
452.60 1.394
452.70 1.394
452.80 1.393
452.90 1.393
453.00 1.392
453.10 1.392
453.20 1.392
453.30 1.391
453.40 1.391
453.50 1.39
453.60 1.39
453.70 1.389
