# Version 2.1 - nm, norm@500 to 1, cut digits, bergeron_11500_80.dat_11500
# Wavelength(nm)  Flambda(ergs/cm^s/s/nm)
300.00 1.807
300.10 1.806
300.20 1.805
300.30 1.804
300.40 1.803
300.50 1.802
300.60 1.801
300.70 1.8
300.80 1.799
300.90 1.798
301.00 1.797
301.10 1.796
301.20 1.795
301.30 1.794
301.40 1.793
301.50 1.792
301.60 1.791
301.70 1.79
301.80 1.789
301.90 1.788
302.00 1.787
302.10 1.786
302.20 1.785
302.30 1.784
302.40 1.783
302.50 1.782
302.60 1.781
302.70 1.78
302.80 1.779
302.90 1.777
303.00 1.776
303.10 1.775
303.20 1.774
303.30 1.773
303.40 1.772
303.50 1.771
303.60 1.77
303.70 1.769
303.80 1.768
303.90 1.767
304.00 1.766
304.10 1.765
304.20 1.764
304.30 1.763
304.40 1.762
304.50 1.761
304.60 1.76
304.70 1.759
304.80 1.758
304.90 1.757
305.00 1.756
305.10 1.755
305.20 1.754
305.30 1.753
305.40 1.752
305.50 1.751
305.60 1.75
305.70 1.749
305.80 1.748
305.90 1.747
306.00 1.746
306.10 1.745
306.20 1.744
306.30 1.743
306.40 1.742
306.50 1.741
306.60 1.74
306.70 1.739
306.80 1.738
306.90 1.737
307.00 1.736
307.10 1.735
307.20 1.734
307.30 1.733
307.40 1.732
307.50 1.731
307.60 1.73
307.70 1.729
307.80 1.728
307.90 1.727
308.00 1.726
308.10 1.725
308.20 1.724
308.30 1.723
308.40 1.722
308.50 1.721
308.60 1.72
308.70 1.719
308.80 1.718
308.90 1.717
309.00 1.716
309.10 1.715
309.20 1.714
309.30 1.713
309.40 1.712
309.50 1.711
309.60 1.71
309.70 1.709
309.80 1.708
309.90 1.707
310.00 1.706
310.10 1.705
310.20 1.704
310.30 1.703
310.40 1.702
310.50 1.701
310.60 1.7
310.70 1.699
310.80 1.698
310.90 1.697
311.00 1.696
311.10 1.695
311.20 1.695
311.30 1.694
311.40 1.693
311.50 1.692
311.60 1.691
311.70 1.69
311.80 1.689
311.90 1.688
312.00 1.687
312.10 1.686
312.20 1.685
312.30 1.684
312.40 1.683
312.50 1.682
312.60 1.681
312.70 1.68
312.80 1.679
312.90 1.678
313.00 1.677
313.10 1.676
313.20 1.675
313.30 1.674
313.40 1.673
313.50 1.672
313.60 1.671
313.70 1.67
313.80 1.669
313.90 1.668
314.00 1.667
314.10 1.666
314.20 1.666
314.30 1.665
314.40 1.664
314.50 1.663
314.60 1.662
314.70 1.661
314.80 1.66
314.90 1.659
315.00 1.658
315.10 1.657
315.20 1.656
315.30 1.655
315.40 1.654
315.50 1.653
315.60 1.652
315.70 1.651
315.80 1.65
315.90 1.649
316.00 1.648
316.10 1.647
316.20 1.646
316.30 1.645
316.40 1.645
316.50 1.644
316.60 1.643
316.70 1.642
316.80 1.641
316.90 1.64
317.00 1.639
317.10 1.638
317.20 1.637
317.30 1.636
317.40 1.635
317.50 1.634
317.60 1.633
317.70 1.632
317.80 1.631
317.90 1.63
318.00 1.629
318.10 1.629
318.20 1.628
318.30 1.627
318.40 1.626
318.50 1.625
318.60 1.624
318.70 1.623
318.80 1.622
318.90 1.621
319.00 1.62
319.10 1.619
319.20 1.618
319.30 1.617
319.40 1.616
319.50 1.615
319.60 1.615
319.70 1.614
319.80 1.613
319.90 1.612
320.00 1.611
320.10 1.61
320.20 1.609
320.30 1.608
320.40 1.607
320.50 1.606
320.60 1.605
320.70 1.604
320.80 1.603
320.90 1.602
321.00 1.602
321.10 1.601
321.20 1.6
321.30 1.599
321.40 1.598
321.50 1.597
321.60 1.596
321.70 1.595
321.80 1.594
321.90 1.593
322.00 1.592
322.10 1.591
322.20 1.591
322.30 1.59
322.40 1.589
322.50 1.588
322.60 1.587
322.70 1.586
322.80 1.585
322.90 1.584
323.00 1.583
323.10 1.582
323.20 1.581
323.30 1.581
323.40 1.58
323.50 1.579
323.60 1.578
323.70 1.577
323.80 1.576
323.90 1.575
324.00 1.574
324.10 1.573
324.20 1.572
324.30 1.571
324.40 1.571
324.50 1.57
324.60 1.569
324.70 1.568
324.80 1.567
324.90 1.566
325.00 1.565
325.10 1.564
325.20 1.563
325.30 1.562
325.40 1.562
325.50 1.561
325.60 1.56
325.70 1.559
325.80 1.558
325.90 1.557
326.00 1.556
326.10 1.555
326.20 1.554
326.30 1.554
326.40 1.553
326.50 1.552
326.60 1.551
326.70 1.55
326.80 1.549
326.90 1.548
327.00 1.547
327.10 1.546
327.20 1.546
327.30 1.545
327.40 1.544
327.50 1.543
327.60 1.542
327.70 1.541
327.80 1.54
327.90 1.539
328.00 1.538
328.10 1.538
328.20 1.537
328.30 1.536
328.40 1.535
328.50 1.534
328.60 1.533
328.70 1.532
328.80 1.531
328.90 1.531
329.00 1.53
329.10 1.529
329.20 1.528
329.30 1.527
329.40 1.526
329.50 1.525
329.60 1.524
329.70 1.524
329.80 1.523
329.90 1.522
330.00 1.521
330.10 1.52
330.20 1.519
330.30 1.518
330.40 1.517
330.50 1.517
330.60 1.516
330.70 1.515
330.80 1.514
330.90 1.513
331.00 1.512
331.10 1.511
331.20 1.51
331.30 1.51
331.40 1.509
331.50 1.508
331.60 1.507
331.70 1.506
331.80 1.505
331.90 1.504
332.00 1.504
332.10 1.503
332.20 1.502
332.30 1.501
332.40 1.5
332.50 1.499
332.60 1.498
332.70 1.498
332.80 1.497
332.90 1.496
333.00 1.495
333.10 1.494
333.20 1.493
333.30 1.492
333.40 1.492
333.50 1.491
333.60 1.49
333.70 1.489
333.80 1.488
333.90 1.487
334.00 1.486
334.10 1.486
334.20 1.485
334.30 1.484
334.40 1.483
334.50 1.482
334.60 1.481
334.70 1.48
334.80 1.48
334.90 1.479
335.00 1.478
335.10 1.477
335.20 1.476
335.30 1.475
335.40 1.475
335.50 1.474
335.60 1.473
335.70 1.472
335.80 1.471
335.90 1.47
336.00 1.47
336.10 1.469
336.20 1.468
336.30 1.467
336.40 1.466
336.50 1.465
336.60 1.464
336.70 1.464
336.80 1.463
336.90 1.462
337.00 1.461
337.10 1.46
337.20 1.459
337.30 1.459
337.40 1.458
337.50 1.457
337.60 1.456
337.70 1.455
337.80 1.454
337.90 1.454
338.00 1.453
338.10 1.452
338.20 1.451
338.30 1.45
338.40 1.449
338.50 1.449
338.60 1.448
338.70 1.447
338.80 1.446
338.90 1.445
339.00 1.445
339.10 1.444
339.20 1.443
339.30 1.442
339.40 1.441
339.50 1.44
339.60 1.44
339.70 1.439
339.80 1.438
339.90 1.437
340.00 1.436
340.10 1.436
340.20 1.435
340.30 1.434
340.40 1.433
340.50 1.432
340.60 1.431
340.70 1.431
340.80 1.43
340.90 1.429
341.00 1.428
341.10 1.427
341.20 1.427
341.30 1.426
341.40 1.425
341.50 1.424
341.60 1.423
341.70 1.422
341.80 1.422
341.90 1.421
342.00 1.42
342.10 1.419
342.20 1.418
342.30 1.418
342.40 1.417
342.50 1.416
342.60 1.415
342.70 1.414
342.80 1.414
342.90 1.413
343.00 1.412
343.10 1.411
343.20 1.41
343.30 1.41
343.40 1.409
343.50 1.408
343.60 1.407
343.70 1.406
343.80 1.406
343.90 1.405
344.00 1.404
344.10 1.403
344.20 1.402
344.30 1.402
344.40 1.401
344.50 1.4
344.60 1.399
344.70 1.398
344.80 1.398
344.90 1.397
345.00 1.396
345.10 1.395
345.20 1.394
345.30 1.394
345.40 1.393
345.50 1.392
345.60 1.391
345.70 1.39
345.80 1.39
345.90 1.389
346.00 1.388
346.10 1.387
346.20 1.386
346.30 1.386
346.40 1.385
346.50 1.384
346.60 1.383
346.70 1.383
346.80 1.382
346.90 1.381
347.00 1.38
347.10 1.379
347.20 1.379
347.30 1.378
347.40 1.377
347.50 1.376
347.60 1.376
347.70 1.375
347.80 1.374
347.90 1.373
348.00 1.372
348.10 1.372
348.20 1.371
348.30 1.37
348.40 1.369
348.50 1.369
348.60 1.368
348.70 1.367
348.80 1.366
348.90 1.365
349.00 1.365
349.10 1.364
349.20 1.363
349.30 1.362
349.40 1.362
349.50 1.361
349.60 1.36
349.70 1.359
349.80 1.358
349.90 1.358
350.00 1.357
350.10 1.356
350.20 1.355
350.30 1.355
350.40 1.354
350.50 1.353
350.60 1.352
350.70 1.352
350.80 1.351
350.90 1.35
351.00 1.349
351.10 1.348
351.20 1.348
351.30 1.347
351.40 1.346
351.50 1.345
351.60 1.345
351.70 1.344
351.80 1.343
351.90 1.342
352.00 1.342
352.10 1.341
352.20 1.34
352.30 1.339
352.40 1.339
352.50 1.338
352.60 1.337
352.70 1.336
352.80 1.336
352.90 1.335
353.00 1.334
353.10 1.333
353.20 1.333
353.30 1.332
353.40 1.331
353.50 1.33
353.60 1.33
353.70 1.329
353.80 1.328
353.90 1.327
354.00 1.327
354.10 1.326
354.20 1.325
354.30 1.324
354.40 1.324
354.50 1.323
354.60 1.322
354.70 1.321
354.80 1.321
354.90 1.32
355.00 1.319
355.10 1.318
355.20 1.318
355.30 1.317
355.40 1.316
355.50 1.315
355.60 1.315
355.70 1.314
355.80 1.313
355.90 1.312
356.00 1.312
356.10 1.311
356.20 1.31
356.30 1.309
356.40 1.309
356.50 1.308
356.60 1.307
356.70 1.306
356.80 1.306
356.90 1.305
357.00 1.304
357.10 1.304
357.20 1.303
357.30 1.302
357.40 1.301
357.50 1.301
357.60 1.3
357.70 1.299
357.80 1.298
357.90 1.298
358.00 1.297
358.10 1.296
358.20 1.295
358.30 1.295
358.40 1.294
358.50 1.293
358.60 1.293
358.70 1.292
358.80 1.291
358.90 1.29
359.00 1.29
359.10 1.289
359.20 1.288
359.30 1.287
359.40 1.287
359.50 1.286
359.60 1.285
359.70 1.285
359.80 1.284
359.90 1.283
360.00 1.282
360.10 1.282
360.20 1.281
360.30 1.28
360.40 1.28
360.50 1.279
360.60 1.278
360.70 1.277
360.80 1.277
360.90 1.276
361.00 1.275
361.10 1.275
361.20 1.274
361.30 1.273
361.40 1.272
361.50 1.272
361.60 1.271
361.70 1.27
361.80 1.27
361.90 1.269
362.00 1.268
362.10 1.267
362.20 1.267
362.30 1.266
362.40 1.265
362.50 1.265
362.60 1.264
362.70 1.263
362.80 1.262
362.90 1.262
363.00 1.261
363.10 1.26
363.20 1.259
363.30 1.259
363.40 1.258
363.50 1.257
363.60 1.256
363.70 1.255
363.80 1.255
363.90 1.254
364.00 1.253
364.10 1.252
364.20 1.252
364.30 1.251
364.40 1.25
364.50 1.249
364.60 1.248
364.70 1.248
364.80 1.247
364.90 1.246
365.00 1.245
365.10 1.244
365.20 1.243
365.30 1.243
365.40 1.242
365.50 1.241
365.60 1.24
365.70 1.239
365.80 1.239
365.90 1.238
366.00 1.237
366.10 1.236
366.20 1.236
366.30 1.235
366.40 1.234
366.50 1.233
366.60 1.233
366.70 1.232
366.80 1.231
366.90 1.231
367.00 1.23
367.10 1.229
367.20 1.228
367.30 1.228
367.40 1.227
367.50 1.226
367.60 1.226
367.70 1.225
367.80 1.224
367.90 1.224
368.00 1.223
368.10 1.222
368.20 1.222
368.30 1.221
368.40 1.221
368.50 1.22
368.60 1.22
368.70 1.219
368.80 1.219
368.90 1.218
369.00 1.218
369.10 1.217
369.20 1.217
369.30 1.216
369.40 1.216
369.50 1.215
369.60 1.215
369.70 1.214
369.80 1.214
369.90 1.213
370.00 1.213
370.10 1.213
370.20 1.213
370.30 1.213
370.40 1.214
370.50 1.214
370.60 1.214
370.70 1.214
370.80 1.214
370.90 1.214
371.00 1.215
371.10 1.215
371.20 1.215
371.30 1.215
371.40 1.215
371.50 1.216
371.60 1.216
371.70 1.216
371.80 1.216
371.90 1.216
372.00 1.216
372.10 1.217
372.20 1.219
372.30 1.22
372.40 1.221
372.50 1.222
372.60 1.223
372.70 1.224
372.80 1.225
372.90 1.226
373.00 1.227
373.10 1.228
373.20 1.229
373.30 1.23
373.40 1.231
373.50 1.232
373.60 1.233
373.70 1.234
373.80 1.236
373.90 1.237
374.00 1.238
374.10 1.239
374.20 1.24
374.30 1.242
374.40 1.243
374.50 1.245
374.60 1.246
374.70 1.248
374.80 1.249
374.90 1.25
375.00 1.252
375.10 1.253
375.20 1.255
375.30 1.256
375.40 1.257
375.50 1.259
375.60 1.26
375.70 1.262
375.80 1.263
375.90 1.264
376.00 1.266
376.10 1.266
376.20 1.267
376.30 1.268
376.40 1.269
376.50 1.269
376.60 1.27
376.70 1.271
376.80 1.272
376.90 1.272
377.00 1.273
377.10 1.272
377.20 1.271
377.30 1.27
377.40 1.268
377.50 1.267
377.60 1.266
377.70 1.265
377.80 1.264
377.90 1.263
378.00 1.262
378.10 1.255
378.20 1.247
378.30 1.24
378.40 1.233
378.50 1.226
378.60 1.219
378.70 1.212
378.80 1.205
378.90 1.198
379.00 1.191
379.10 1.185
379.20 1.18
379.30 1.174
379.40 1.169
379.50 1.164
379.60 1.158
379.70 1.153
379.80 1.147
379.90 1.142
380.00 1.137
380.10 1.145
380.20 1.154
380.30 1.163
380.40 1.172
380.50 1.18
380.60 1.189
380.70 1.198
380.80 1.206
380.90 1.215
381.00 1.224
381.10 1.227
381.20 1.23
381.30 1.233
381.40 1.236
381.50 1.239
381.60 1.238
381.70 1.236
381.80 1.234
381.90 1.23
382.00 1.224
382.10 1.217
382.20 1.209
382.30 1.192
382.40 1.175
382.50 1.158
382.60 1.141
382.70 1.125
382.80 1.108
382.90 1.091
383.00 1.074
383.10 1.057
383.20 1.04
383.30 1.026
383.40 1.01
383.50 0.9932
383.60 0.9966
383.70 1.014
383.80 1.031
383.90 1.046
384.00 1.063
384.10 1.085
384.20 1.107
384.30 1.129
384.40 1.151
384.50 1.171
384.60 1.188
384.70 1.203
384.80 1.217
384.90 1.228
385.00 1.238
385.10 1.246
385.20 1.253
385.30 1.259
385.40 1.264
385.50 1.268
385.60 1.272
385.70 1.273
385.80 1.275
385.90 1.276
386.00 1.275
386.10 1.274
386.20 1.272
386.30 1.27
386.40 1.266
386.50 1.262
386.60 1.257
386.70 1.251
386.80 1.244
386.90 1.236
387.00 1.228
387.10 1.218
387.20 1.207
387.30 1.196
387.40 1.183
387.50 1.168
387.60 1.153
387.70 1.135
387.80 1.115
387.90 1.092
388.00 1.067
388.10 1.038
388.20 1.007
388.30 0.9737
388.40 0.9386
388.50 0.9064
388.60 0.8769
388.70 0.8525
388.80 0.8303
388.90 0.8102
389.00 0.8286
389.10 0.85
389.20 0.8744
389.30 0.9035
389.40 0.9357
389.50 0.9711
389.60 1.005
389.70 1.037
389.80 1.068
389.90 1.094
390.00 1.119
390.10 1.141
390.20 1.16
390.30 1.177
390.40 1.194
390.50 1.209
390.60 1.223
390.70 1.236
390.80 1.248
390.90 1.26
391.00 1.27
391.10 1.28
391.20 1.289
391.30 1.298
391.40 1.306
391.50 1.313
391.60 1.32
391.70 1.325
391.80 1.331
391.90 1.336
392.00 1.34
392.10 1.343
392.20 1.347
392.30 1.349
392.40 1.351
392.50 1.352
392.60 1.353
392.70 1.353
392.80 1.352
392.90 1.351
393.00 1.349
393.10 1.347
393.20 1.344
393.30 1.341
393.40 1.337
393.50 1.332
393.60 1.326
393.70 1.32
393.80 1.313
393.90 1.306
394.00 1.298
394.10 1.289
394.20 1.28
394.30 1.27
394.40 1.259
394.50 1.248
394.60 1.236
394.70 1.223
394.80 1.209
394.90 1.194
395.00 1.179
395.10 1.163
395.20 1.146
395.30 1.128
395.40 1.109
395.50 1.09
395.60 1.07
395.70 1.049
395.80 1.027
395.90 1.002
396.00 0.9755
396.10 0.9475
396.20 0.9162
396.30 0.8829
396.40 0.8475
396.50 0.8077
396.60 0.7687
396.70 0.7305
396.80 0.6986
396.90 0.6641
397.00 0.6269
397.10 0.661
397.20 0.6936
397.30 0.7246
397.40 0.7619
397.50 0.8003
397.60 0.8397
397.70 0.8751
397.80 0.9084
397.90 0.9395
398.00 0.9674
398.10 0.9938
398.20 1.018
398.30 1.041
398.40 1.062
398.50 1.082
398.60 1.101
398.70 1.12
398.80 1.138
398.90 1.156
399.00 1.172
399.10 1.189
399.20 1.204
399.30 1.218
399.40 1.233
399.50 1.246
399.60 1.259
399.70 1.272
399.80 1.283
399.90 1.295
400.00 1.306
400.10 1.316
400.20 1.326
400.30 1.336
400.40 1.344
400.50 1.353
400.60 1.361
400.70 1.369
400.80 1.377
400.90 1.384
401.00 1.39
401.10 1.397
401.20 1.403
401.30 1.408
401.40 1.413
401.50 1.418
401.60 1.423
401.70 1.427
401.80 1.431
401.90 1.435
402.00 1.438
402.10 1.441
402.20 1.444
402.30 1.446
402.40 1.449
402.50 1.451
402.60 1.452
402.70 1.454
402.80 1.455
402.90 1.456
403.00 1.456
403.10 1.457
403.20 1.457
403.30 1.457
403.40 1.456
403.50 1.455
403.60 1.455
403.70 1.453
403.80 1.452
403.90 1.45
404.00 1.448
404.10 1.446
404.20 1.443
404.30 1.44
404.40 1.437
404.50 1.434
404.60 1.43
404.70 1.427
404.80 1.423
404.90 1.418
405.00 1.413
405.10 1.408
405.20 1.403
405.30 1.397
405.40 1.391
405.50 1.385
405.60 1.378
405.70 1.372
405.80 1.364
405.90 1.356
406.00 1.348
406.10 1.34
406.20 1.331
406.30 1.322
406.40 1.312
406.50 1.302
406.60 1.292
406.70 1.281
406.80 1.27
406.90 1.259
407.00 1.247
407.10 1.234
407.20 1.221
407.30 1.208
407.40 1.194
407.50 1.18
407.60 1.164
407.70 1.149
407.80 1.133
407.90 1.116
408.00 1.098
408.10 1.081
408.20 1.062
408.30 1.043
408.40 1.023
408.50 1.003
408.60 0.9822
408.70 0.9613
408.80 0.9397
408.90 0.9175
409.00 0.8949
409.10 0.871
409.20 0.8464
409.30 0.8212
409.40 0.7936
409.50 0.7646
409.60 0.7339
409.70 0.7005
409.80 0.6668
409.90 0.6329
410.00 0.5973
410.10 0.5634
410.20 0.531
410.30 0.5769
410.40 0.6165
410.50 0.6497
410.60 0.6835
410.70 0.7163
410.80 0.7483
410.90 0.7771
411.00 0.8044
411.10 0.8303
411.20 0.8542
411.30 0.8774
411.40 0.9
411.50 0.9214
411.60 0.9423
411.70 0.9627
411.80 0.9824
411.90 1.002
412.00 1.021
412.10 1.039
412.20 1.057
412.30 1.074
412.40 1.091
412.50 1.107
412.60 1.123
412.70 1.137
412.80 1.152
412.90 1.166
413.00 1.179
413.10 1.192
413.20 1.204
413.30 1.216
413.40 1.227
413.50 1.238
413.60 1.249
413.70 1.259
413.80 1.269
413.90 1.279
414.00 1.288
414.10 1.297
414.20 1.305
414.30 1.314
414.40 1.322
414.50 1.329
414.60 1.337
414.70 1.344
414.80 1.351
414.90 1.357
415.00 1.364
415.10 1.37
415.20 1.376
415.30 1.381
415.40 1.387
415.50 1.392
415.60 1.397
415.70 1.401
415.80 1.406
415.90 1.411
416.00 1.415
416.10 1.419
416.20 1.423
416.30 1.427
416.40 1.431
416.50 1.434
416.60 1.438
416.70 1.441
416.80 1.445
416.90 1.448
417.00 1.451
417.10 1.454
417.20 1.456
417.30 1.459
417.40 1.461
417.50 1.464
417.60 1.466
417.70 1.468
417.80 1.47
417.90 1.472
418.00 1.474
418.10 1.475
418.20 1.477
418.30 1.478
418.40 1.48
418.50 1.481
418.60 1.482
418.70 1.484
418.80 1.485
418.90 1.486
419.00 1.487
419.10 1.488
419.20 1.488
419.30 1.489
419.40 1.49
419.50 1.49
419.60 1.491
419.70 1.491
419.80 1.492
419.90 1.492
420.00 1.492
420.10 1.493
420.20 1.493
420.30 1.493
420.40 1.493
420.50 1.493
420.60 1.493
420.70 1.493
420.80 1.493
420.90 1.492
421.00 1.492
421.10 1.492
421.20 1.491
421.30 1.491
421.40 1.49
421.50 1.49
421.60 1.489
421.70 1.489
421.80 1.488
421.90 1.487
422.00 1.486
422.10 1.485
422.20 1.484
422.30 1.484
422.40 1.483
422.50 1.481
422.60 1.48
422.70 1.479
422.80 1.478
422.90 1.477
423.00 1.475
423.10 1.474
423.20 1.472
423.30 1.471
423.40 1.469
423.50 1.468
423.60 1.466
423.70 1.464
423.80 1.463
423.90 1.461
424.00 1.459
424.10 1.457
424.20 1.455
424.30 1.453
424.40 1.451
424.50 1.449
424.60 1.447
424.70 1.444
424.80 1.442
424.90 1.44
425.00 1.437
425.10 1.435
425.20 1.432
425.30 1.429
425.40 1.427
425.50 1.424
425.60 1.421
425.70 1.418
425.80 1.415
425.90 1.412
426.00 1.409
426.10 1.405
426.20 1.401
426.30 1.397
426.40 1.394
426.50 1.39
426.60 1.387
426.70 1.383
426.80 1.379
426.90 1.375
427.00 1.371
427.10 1.366
427.20 1.362
427.30 1.358
427.40 1.353
427.50 1.348
427.60 1.344
427.70 1.339
427.80 1.334
427.90 1.329
428.00 1.323
428.10 1.318
428.20 1.312
428.30 1.307
428.40 1.301
428.50 1.295
428.60 1.289
428.70 1.282
428.80 1.276
428.90 1.269
429.00 1.262
429.10 1.255
429.20 1.248
429.30 1.241
429.40 1.233
429.50 1.225
429.60 1.217
429.70 1.209
429.80 1.2
429.90 1.192
430.00 1.183
430.10 1.173
430.20 1.164
430.30 1.154
430.40 1.144
430.50 1.134
430.60 1.123
430.70 1.113
430.80 1.101
430.90 1.09
431.00 1.078
431.10 1.066
431.20 1.054
431.30 1.041
431.40 1.029
431.50 1.015
431.60 1.001
431.70 0.9873
431.80 0.9727
431.90 0.9575
432.00 0.9418
432.10 0.9258
432.20 0.9088
432.30 0.8912
432.40 0.8731
432.50 0.8535
432.60 0.8331
432.70 0.8119
432.80 0.79
432.90 0.7684
433.00 0.7471
433.10 0.7272
433.20 0.7073
433.30 0.6874
433.40 0.6659
433.50 0.643
433.60 0.6187
433.70 0.5905
433.80 0.5598
433.90 0.5263
434.00 0.4625
434.10 0.4634
434.20 0.5292
434.30 0.5616
434.40 0.5916
434.50 0.6191
434.60 0.6428
434.70 0.665
434.80 0.6858
434.90 0.705
435.00 0.7242
435.10 0.7435
435.20 0.7641
435.30 0.7849
435.40 0.8058
435.50 0.826
435.60 0.8454
435.70 0.8639
435.80 0.881
435.90 0.8974
436.00 0.9133
436.10 0.9282
436.20 0.9427
436.30 0.9567
436.40 0.97
436.50 0.983
436.60 0.9955
436.70 1.007
436.80 1.019
436.90 1.031
437.00 1.041
437.10 1.052
437.20 1.062
437.30 1.072
437.40 1.082
437.50 1.092
437.60 1.101
437.70 1.109
437.80 1.118
437.90 1.126
438.00 1.134
438.10 1.142
438.20 1.15
438.30 1.157
438.40 1.164
438.50 1.171
438.60 1.177
438.70 1.184
438.80 1.19
438.90 1.196
439.00 1.201
439.10 1.207
439.20 1.212
439.30 1.217
439.40 1.222
439.50 1.227
439.60 1.232
439.70 1.236
439.80 1.24
439.90 1.245
440.00 1.249
440.10 1.253
440.20 1.256
440.30 1.26
440.40 1.264
440.50 1.267
440.60 1.27
440.70 1.274
440.80 1.277
440.90 1.28
441.00 1.283
441.10 1.286
441.20 1.288
441.30 1.291
441.40 1.293
441.50 1.296
441.60 1.298
441.70 1.3
441.80 1.302
441.90 1.305
442.00 1.307
442.10 1.309
442.20 1.31
442.30 1.312
442.40 1.314
442.50 1.316
442.60 1.317
442.70 1.319
442.80 1.32
442.90 1.322
443.00 1.323
443.10 1.324
443.20 1.326
443.30 1.327
443.40 1.328
443.50 1.329
443.60 1.33
443.70 1.331
443.80 1.332
443.90 1.333
444.00 1.334
444.10 1.335
444.20 1.336
444.30 1.336
444.40 1.337
444.50 1.338
444.60 1.339
444.70 1.339
444.80 1.34
444.90 1.34
445.00 1.341
445.10 1.341
445.20 1.342
445.30 1.342
445.40 1.343
445.50 1.343
445.60 1.344
445.70 1.344
445.80 1.344
445.90 1.345
446.00 1.345
446.10 1.345
446.20 1.345
446.30 1.345
446.40 1.346
446.50 1.346
446.60 1.346
446.70 1.346
446.80 1.346
446.90 1.346
447.00 1.346
447.10 1.346
447.20 1.346
447.30 1.346
447.40 1.346
447.50 1.346
447.60 1.346
447.70 1.346
447.80 1.346
447.90 1.346
448.00 1.346
448.10 1.346
448.20 1.345
448.30 1.345
448.40 1.345
448.50 1.345
448.60 1.345
448.70 1.344
448.80 1.344
448.90 1.344
449.00 1.344
449.10 1.344
449.20 1.343
449.30 1.343
449.40 1.343
449.50 1.343
449.60 1.342
449.70 1.342
449.80 1.342
449.90 1.341
450.00 1.341
450.10 1.341
450.20 1.34
450.30 1.34
450.40 1.339
450.50 1.339
450.60 1.339
450.70 1.338
450.80 1.338
450.90 1.337
451.00 1.337
451.10 1.336
451.20 1.336
451.30 1.336
451.40 1.335
451.50 1.335
451.60 1.334
451.70 1.334
451.80 1.333
451.90 1.333
452.00 1.332
452.10 1.332
452.20 1.331
452.30 1.331
452.40 1.33
452.50 1.329
452.60 1.329
452.70 1.328
452.80 1.328
452.90 1.327
453.00 1.327
453.10 1.326
