# Version 2.1 - nm, norm@500 to 1, cut digits, bergeron_16500_90.dat_16500
# Wavelength(nm)  Flambda(ergs/cm^s/s/nm)
300.00 2.845
300.10 2.842
300.20 2.84
300.30 2.837
300.40 2.835
300.50 2.832
300.60 2.83
300.70 2.827
300.80 2.825
300.90 2.823
301.00 2.82
301.10 2.818
301.20 2.815
301.30 2.813
301.40 2.81
301.50 2.808
301.60 2.806
301.70 2.803
301.80 2.801
301.90 2.798
302.00 2.796
302.10 2.794
302.20 2.791
302.30 2.789
302.40 2.786
302.50 2.784
302.60 2.782
302.70 2.779
302.80 2.777
302.90 2.775
303.00 2.772
303.10 2.77
303.20 2.767
303.30 2.765
303.40 2.763
303.50 2.76
303.60 2.758
303.70 2.756
303.80 2.753
303.90 2.751
304.00 2.749
304.10 2.746
304.20 2.744
304.30 2.742
304.40 2.739
304.50 2.737
304.60 2.735
304.70 2.732
304.80 2.73
304.90 2.728
305.00 2.725
305.10 2.723
305.20 2.721
305.30 2.718
305.40 2.716
305.50 2.714
305.60 2.711
305.70 2.709
305.80 2.707
305.90 2.705
306.00 2.702
306.10 2.7
306.20 2.698
306.30 2.695
306.40 2.693
306.50 2.691
306.60 2.689
306.70 2.686
306.80 2.684
306.90 2.682
307.00 2.68
307.10 2.677
307.20 2.675
307.30 2.673
307.40 2.67
307.50 2.668
307.60 2.666
307.70 2.664
307.80 2.661
307.90 2.659
308.00 2.657
308.10 2.655
308.20 2.653
308.30 2.65
308.40 2.648
308.50 2.646
308.60 2.644
308.70 2.641
308.80 2.639
308.90 2.637
309.00 2.635
309.10 2.632
309.20 2.63
309.30 2.628
309.40 2.626
309.50 2.624
309.60 2.621
309.70 2.619
309.80 2.617
309.90 2.615
310.00 2.613
310.10 2.61
310.20 2.608
310.30 2.606
310.40 2.604
310.50 2.602
310.60 2.6
310.70 2.597
310.80 2.595
310.90 2.593
311.00 2.591
311.10 2.589
311.20 2.586
311.30 2.584
311.40 2.582
311.50 2.58
311.60 2.578
311.70 2.576
311.80 2.573
311.90 2.571
312.00 2.569
312.10 2.567
312.20 2.565
312.30 2.563
312.40 2.561
312.50 2.559
312.60 2.556
312.70 2.554
312.80 2.552
312.90 2.55
313.00 2.548
313.10 2.546
313.20 2.544
313.30 2.542
313.40 2.539
313.50 2.537
313.60 2.535
313.70 2.533
313.80 2.531
313.90 2.529
314.00 2.527
314.10 2.525
314.20 2.523
314.30 2.521
314.40 2.518
314.50 2.516
314.60 2.514
314.70 2.512
314.80 2.51
314.90 2.508
315.00 2.506
315.10 2.504
315.20 2.502
315.30 2.5
315.40 2.498
315.50 2.496
315.60 2.494
315.70 2.491
315.80 2.489
315.90 2.487
316.00 2.485
316.10 2.483
316.20 2.481
316.30 2.479
316.40 2.477
316.50 2.475
316.60 2.473
316.70 2.471
316.80 2.469
316.90 2.467
317.00 2.465
317.10 2.463
317.20 2.461
317.30 2.459
317.40 2.457
317.50 2.455
317.60 2.453
317.70 2.451
317.80 2.449
317.90 2.447
318.00 2.445
318.10 2.443
318.20 2.441
318.30 2.439
318.40 2.437
318.50 2.435
318.60 2.433
318.70 2.431
318.80 2.429
318.90 2.427
319.00 2.425
319.10 2.423
319.20 2.421
319.30 2.419
319.40 2.417
319.50 2.415
319.60 2.413
319.70 2.411
319.80 2.409
319.90 2.407
320.00 2.405
320.10 2.403
320.20 2.401
320.30 2.399
320.40 2.397
320.50 2.395
320.60 2.393
320.70 2.391
320.80 2.389
320.90 2.387
321.00 2.385
321.10 2.384
321.20 2.382
321.30 2.38
321.40 2.378
321.50 2.376
321.60 2.374
321.70 2.372
321.80 2.37
321.90 2.368
322.00 2.366
322.10 2.364
322.20 2.362
322.30 2.36
322.40 2.358
322.50 2.357
322.60 2.355
322.70 2.353
322.80 2.351
322.90 2.349
323.00 2.347
323.10 2.345
323.20 2.343
323.30 2.341
323.40 2.339
323.50 2.338
323.60 2.336
323.70 2.334
323.80 2.332
323.90 2.33
324.00 2.328
324.10 2.326
324.20 2.324
324.30 2.323
324.40 2.321
324.50 2.319
324.60 2.317
324.70 2.315
324.80 2.313
324.90 2.311
325.00 2.309
325.10 2.308
325.20 2.306
325.30 2.304
325.40 2.302
325.50 2.3
325.60 2.298
325.70 2.296
325.80 2.295
325.90 2.293
326.00 2.291
326.10 2.289
326.20 2.287
326.30 2.285
326.40 2.284
326.50 2.282
326.60 2.28
326.70 2.278
326.80 2.276
326.90 2.274
327.00 2.273
327.10 2.271
327.20 2.269
327.30 2.267
327.40 2.265
327.50 2.263
327.60 2.262
327.70 2.26
327.80 2.258
327.90 2.256
328.00 2.254
328.10 2.253
328.20 2.251
328.30 2.249
328.40 2.247
328.50 2.245
328.60 2.244
328.70 2.242
328.80 2.24
328.90 2.238
329.00 2.236
329.10 2.235
329.20 2.233
329.30 2.231
329.40 2.229
329.50 2.228
329.60 2.226
329.70 2.224
329.80 2.222
329.90 2.22
330.00 2.219
330.10 2.217
330.20 2.215
330.30 2.213
330.40 2.212
330.50 2.21
330.60 2.208
330.70 2.206
330.80 2.205
330.90 2.203
331.00 2.201
331.10 2.199
331.20 2.198
331.30 2.196
331.40 2.194
331.50 2.192
331.60 2.191
331.70 2.189
331.80 2.187
331.90 2.185
332.00 2.184
332.10 2.182
332.20 2.18
332.30 2.178
332.40 2.177
332.50 2.175
332.60 2.173
332.70 2.172
332.80 2.17
332.90 2.168
333.00 2.166
333.10 2.165
333.20 2.163
333.30 2.161
333.40 2.16
333.50 2.158
333.60 2.156
333.70 2.155
333.80 2.153
333.90 2.151
334.00 2.149
334.10 2.148
334.20 2.146
334.30 2.144
334.40 2.143
334.50 2.141
334.60 2.139
334.70 2.138
334.80 2.136
334.90 2.134
335.00 2.133
335.10 2.131
335.20 2.129
335.30 2.128
335.40 2.126
335.50 2.124
335.60 2.123
335.70 2.121
335.80 2.119
335.90 2.118
336.00 2.116
336.10 2.114
336.20 2.113
336.30 2.111
336.40 2.109
336.50 2.108
336.60 2.106
336.70 2.104
336.80 2.103
336.90 2.101
337.00 2.099
337.10 2.098
337.20 2.096
337.30 2.094
337.40 2.093
337.50 2.091
337.60 2.09
337.70 2.088
337.80 2.086
337.90 2.085
338.00 2.083
338.10 2.081
338.20 2.08
338.30 2.078
338.40 2.077
338.50 2.075
338.60 2.073
338.70 2.072
338.80 2.07
338.90 2.068
339.00 2.067
339.10 2.065
339.20 2.064
339.30 2.062
339.40 2.06
339.50 2.059
339.60 2.057
339.70 2.056
339.80 2.054
339.90 2.052
340.00 2.051
340.10 2.049
340.20 2.048
340.30 2.046
340.40 2.044
340.50 2.043
340.60 2.041
340.70 2.04
340.80 2.038
340.90 2.037
341.00 2.035
341.10 2.033
341.20 2.032
341.30 2.03
341.40 2.029
341.50 2.027
341.60 2.026
341.70 2.024
341.80 2.022
341.90 2.021
342.00 2.019
342.10 2.018
342.20 2.016
342.30 2.015
342.40 2.013
342.50 2.012
342.60 2.01
342.70 2.008
342.80 2.007
342.90 2.005
343.00 2.004
343.10 2.002
343.20 2.001
343.30 1.999
343.40 1.998
343.50 1.996
343.60 1.995
343.70 1.993
343.80 1.991
343.90 1.99
344.00 1.988
344.10 1.987
344.20 1.985
344.30 1.984
344.40 1.982
344.50 1.981
344.60 1.979
344.70 1.978
344.80 1.976
344.90 1.975
345.00 1.973
345.10 1.972
345.20 1.97
345.30 1.969
345.40 1.967
345.50 1.966
345.60 1.964
345.70 1.963
345.80 1.961
345.90 1.96
346.00 1.958
346.10 1.957
346.20 1.955
346.30 1.954
346.40 1.952
346.50 1.951
346.60 1.949
346.70 1.948
346.80 1.946
346.90 1.945
347.00 1.943
347.10 1.942
347.20 1.94
347.30 1.939
347.40 1.937
347.50 1.936
347.60 1.934
347.70 1.933
347.80 1.931
347.90 1.93
348.00 1.928
348.10 1.927
348.20 1.925
348.30 1.924
348.40 1.922
348.50 1.921
348.60 1.92
348.70 1.918
348.80 1.917
348.90 1.915
349.00 1.914
349.10 1.912
349.20 1.911
349.30 1.909
349.40 1.908
349.50 1.906
349.60 1.905
349.70 1.904
349.80 1.902
349.90 1.901
350.00 1.899
350.10 1.898
350.20 1.896
350.30 1.895
350.40 1.893
350.50 1.892
350.60 1.891
350.70 1.889
350.80 1.888
350.90 1.886
351.00 1.885
351.10 1.883
351.20 1.882
351.30 1.881
351.40 1.879
351.50 1.878
351.60 1.876
351.70 1.875
351.80 1.874
351.90 1.872
352.00 1.871
352.10 1.869
352.20 1.868
352.30 1.866
352.40 1.865
352.50 1.864
352.60 1.862
352.70 1.861
352.80 1.859
352.90 1.858
353.00 1.857
353.10 1.855
353.20 1.854
353.30 1.852
353.40 1.851
353.50 1.85
353.60 1.848
353.70 1.847
353.80 1.845
353.90 1.844
354.00 1.843
354.10 1.841
354.20 1.84
354.30 1.839
354.40 1.837
354.50 1.836
354.60 1.834
354.70 1.833
354.80 1.832
354.90 1.83
355.00 1.829
355.10 1.828
355.20 1.826
355.30 1.825
355.40 1.823
355.50 1.822
355.60 1.821
355.70 1.819
355.80 1.818
355.90 1.817
356.00 1.815
356.10 1.814
356.20 1.812
356.30 1.811
356.40 1.81
356.50 1.808
356.60 1.807
356.70 1.806
356.80 1.804
356.90 1.803
357.00 1.802
357.10 1.8
357.20 1.799
357.30 1.798
357.40 1.796
357.50 1.795
357.60 1.794
357.70 1.792
357.80 1.791
357.90 1.79
358.00 1.788
358.10 1.787
358.20 1.786
358.30 1.784
358.40 1.783
358.50 1.782
358.60 1.78
358.70 1.779
358.80 1.778
358.90 1.776
359.00 1.775
359.10 1.774
359.20 1.772
359.30 1.771
359.40 1.77
359.50 1.768
359.60 1.767
359.70 1.766
359.80 1.764
359.90 1.763
360.00 1.762
360.10 1.761
360.20 1.759
360.30 1.758
360.40 1.757
360.50 1.755
360.60 1.754
360.70 1.753
360.80 1.751
360.90 1.75
361.00 1.749
361.10 1.748
361.20 1.746
361.30 1.745
361.40 1.744
361.50 1.742
361.60 1.741
361.70 1.74
361.80 1.738
361.90 1.737
362.00 1.736
362.10 1.735
362.20 1.733
362.30 1.732
362.40 1.731
362.50 1.73
362.60 1.728
362.70 1.727
362.80 1.726
362.90 1.724
363.00 1.723
363.10 1.722
363.20 1.72
363.30 1.719
363.40 1.717
363.50 1.716
363.60 1.714
363.70 1.713
363.80 1.711
363.90 1.71
364.00 1.709
364.10 1.707
364.20 1.706
364.30 1.704
364.40 1.703
364.50 1.701
364.60 1.7
364.70 1.698
364.80 1.697
364.90 1.695
365.00 1.694
365.10 1.692
365.20 1.691
365.30 1.689
365.40 1.688
365.50 1.686
365.60 1.685
365.70 1.683
365.80 1.682
365.90 1.68
366.00 1.679
366.10 1.678
366.20 1.676
366.30 1.675
366.40 1.674
366.50 1.672
366.60 1.671
366.70 1.67
366.80 1.668
366.90 1.667
367.00 1.666
367.10 1.665
367.20 1.663
367.30 1.662
367.40 1.661
367.50 1.659
367.60 1.658
367.70 1.657
367.80 1.655
367.90 1.654
368.00 1.653
368.10 1.652
368.20 1.65
368.30 1.649
368.40 1.648
368.50 1.646
368.60 1.645
368.70 1.644
368.80 1.643
368.90 1.641
369.00 1.64
369.10 1.639
369.20 1.637
369.30 1.636
369.40 1.635
369.50 1.634
369.60 1.632
369.70 1.631
369.80 1.63
369.90 1.629
370.00 1.627
370.10 1.626
370.20 1.625
370.30 1.624
370.40 1.622
370.50 1.621
370.60 1.62
370.70 1.619
370.80 1.618
370.90 1.616
371.00 1.615
371.10 1.614
371.20 1.613
371.30 1.612
371.40 1.61
371.50 1.609
371.60 1.608
371.70 1.607
371.80 1.606
371.90 1.604
372.00 1.603
372.10 1.602
372.20 1.601
372.30 1.6
372.40 1.599
372.50 1.598
372.60 1.597
372.70 1.596
372.80 1.595
372.90 1.594
373.00 1.593
373.10 1.592
373.20 1.591
373.30 1.59
373.40 1.589
373.50 1.588
373.60 1.587
373.70 1.586
373.80 1.585
373.90 1.584
374.00 1.583
374.10 1.582
374.20 1.581
374.30 1.58
374.40 1.579
374.50 1.578
374.60 1.577
374.70 1.577
374.80 1.576
374.90 1.575
375.00 1.574
375.10 1.573
375.20 1.572
375.30 1.571
375.40 1.571
375.50 1.57
375.60 1.569
375.70 1.568
375.80 1.567
375.90 1.566
376.00 1.565
376.10 1.565
376.20 1.564
376.30 1.563
376.40 1.562
376.50 1.561
376.60 1.561
376.70 1.56
376.80 1.559
376.90 1.558
377.00 1.557
377.10 1.556
377.20 1.555
377.30 1.554
377.40 1.553
377.50 1.552
377.60 1.551
377.70 1.55
377.80 1.55
377.90 1.549
378.00 1.548
378.10 1.546
378.20 1.544
378.30 1.543
378.40 1.541
378.50 1.54
378.60 1.538
378.70 1.536
378.80 1.535
378.90 1.533
379.00 1.532
379.10 1.531
379.20 1.529
379.30 1.528
379.40 1.527
379.50 1.526
379.60 1.525
379.70 1.523
379.80 1.522
379.90 1.521
380.00 1.52
380.10 1.52
380.20 1.52
380.30 1.521
380.40 1.521
380.50 1.521
380.60 1.521
380.70 1.521
380.80 1.522
380.90 1.522
381.00 1.522
381.10 1.522
381.20 1.521
381.30 1.521
381.40 1.521
381.50 1.52
381.60 1.519
381.70 1.519
381.80 1.517
381.90 1.516
382.00 1.515
382.10 1.513
382.20 1.511
382.30 1.508
382.40 1.505
382.50 1.502
382.60 1.499
382.70 1.496
382.80 1.493
382.90 1.49
383.00 1.487
383.10 1.484
383.20 1.481
383.30 1.479
383.40 1.477
383.50 1.475
383.60 1.475
383.70 1.477
383.80 1.478
383.90 1.48
384.00 1.482
384.10 1.485
384.20 1.488
384.30 1.491
384.40 1.493
384.50 1.496
384.60 1.498
384.70 1.5
384.80 1.502
384.90 1.503
385.00 1.504
385.10 1.505
385.20 1.505
385.30 1.505
385.40 1.505
385.50 1.505
385.60 1.505
385.70 1.504
385.80 1.503
385.90 1.502
386.00 1.501
386.10 1.5
386.20 1.498
386.30 1.496
386.40 1.494
386.50 1.492
386.60 1.49
386.70 1.487
386.80 1.484
386.90 1.481
387.00 1.478
387.10 1.475
387.20 1.471
387.30 1.467
387.40 1.463
387.50 1.459
387.60 1.454
387.70 1.449
387.80 1.444
387.90 1.438
388.00 1.432
388.10 1.425
388.20 1.418
388.30 1.411
388.40 1.403
388.50 1.395
388.60 1.388
388.70 1.385
388.80 1.381
388.90 1.379
389.00 1.381
389.10 1.384
389.20 1.387
389.30 1.394
389.40 1.401
389.50 1.409
389.60 1.417
389.70 1.424
389.80 1.43
389.90 1.436
390.00 1.442
390.10 1.447
390.20 1.452
390.30 1.457
390.40 1.461
390.50 1.465
390.60 1.469
390.70 1.473
390.80 1.476
390.90 1.479
391.00 1.482
391.10 1.485
391.20 1.487
391.30 1.489
391.40 1.491
391.50 1.493
391.60 1.495
391.70 1.496
391.80 1.497
391.90 1.498
392.00 1.498
392.10 1.498
392.20 1.498
392.30 1.498
392.40 1.497
392.50 1.496
392.60 1.495
392.70 1.494
392.80 1.492
392.90 1.49
393.00 1.487
393.10 1.485
393.20 1.481
393.30 1.478
393.40 1.475
393.50 1.471
393.60 1.466
393.70 1.462
393.80 1.457
393.90 1.452
394.00 1.446
394.10 1.44
394.20 1.434
394.30 1.428
394.40 1.421
394.50 1.414
394.60 1.406
394.70 1.399
394.80 1.391
394.90 1.383
395.00 1.374
395.10 1.366
395.20 1.357
395.30 1.347
395.40 1.338
395.50 1.328
395.60 1.318
395.70 1.307
395.80 1.296
395.90 1.285
396.00 1.274
396.10 1.263
396.20 1.251
396.30 1.237
396.40 1.223
396.50 1.206
396.60 1.189
396.70 1.17
396.80 1.158
396.90 1.146
397.00 1.134
397.10 1.144
397.20 1.155
397.30 1.166
397.40 1.184
397.50 1.201
397.60 1.218
397.70 1.231
397.80 1.244
397.90 1.256
398.00 1.267
398.10 1.278
398.20 1.289
398.30 1.3
398.40 1.31
398.50 1.32
398.60 1.33
398.70 1.339
398.80 1.349
398.90 1.358
399.00 1.367
399.10 1.375
399.20 1.384
399.30 1.392
399.40 1.4
399.50 1.408
399.60 1.416
399.70 1.423
399.80 1.43
399.90 1.437
400.00 1.444
400.10 1.45
400.20 1.457
400.30 1.463
400.40 1.468
400.50 1.474
400.60 1.479
400.70 1.484
400.80 1.489
400.90 1.493
401.00 1.498
401.10 1.502
401.20 1.505
401.30 1.509
401.40 1.512
401.50 1.515
401.60 1.518
401.70 1.521
401.80 1.523
401.90 1.525
402.00 1.527
402.10 1.529
402.20 1.53
402.30 1.531
402.40 1.533
402.50 1.533
402.60 1.534
402.70 1.534
402.80 1.534
402.90 1.534
403.00 1.534
403.10 1.533
403.20 1.532
403.30 1.531
403.40 1.529
403.50 1.528
403.60 1.526
403.70 1.524
403.80 1.522
403.90 1.519
404.00 1.516
404.10 1.513
404.20 1.51
404.30 1.506
404.40 1.503
404.50 1.499
404.60 1.494
404.70 1.49
404.80 1.485
404.90 1.48
405.00 1.475
405.10 1.47
405.20 1.464
405.30 1.458
405.40 1.452
405.50 1.445
405.60 1.439
405.70 1.432
405.80 1.424
405.90 1.417
406.00 1.41
406.10 1.402
406.20 1.393
406.30 1.385
406.40 1.376
406.50 1.368
406.60 1.358
406.70 1.349
406.80 1.339
406.90 1.33
407.00 1.319
407.10 1.309
407.20 1.298
407.30 1.287
407.40 1.276
407.50 1.265
407.60 1.253
407.70 1.241
407.80 1.229
407.90 1.216
408.00 1.204
408.10 1.191
408.20 1.178
408.30 1.165
408.40 1.151
408.50 1.138
408.60 1.124
408.70 1.11
408.80 1.095
408.90 1.08
409.00 1.065
409.10 1.051
409.20 1.036
409.30 1.021
409.40 1.006
409.50 0.9894
409.60 0.9724
409.70 0.9531
409.80 0.9327
409.90 0.9113
410.00 0.8934
410.10 0.8814
410.20 0.8753
410.30 0.8859
410.40 0.9009
410.50 0.9202
410.60 0.9401
410.70 0.9588
410.80 0.9763
410.90 0.9916
411.00 1.006
411.10 1.02
411.20 1.034
411.30 1.048
411.40 1.061
411.50 1.075
411.60 1.088
411.70 1.101
411.80 1.114
411.90 1.127
412.00 1.139
412.10 1.151
412.20 1.163
412.30 1.175
412.40 1.187
412.50 1.198
412.60 1.209
412.70 1.22
412.80 1.231
412.90 1.241
413.00 1.252
413.10 1.262
413.20 1.272
413.30 1.281
413.40 1.291
413.50 1.3
413.60 1.309
413.70 1.318
413.80 1.326
413.90 1.335
414.00 1.343
414.10 1.351
414.20 1.359
414.30 1.367
414.40 1.374
414.50 1.381
414.60 1.389
414.70 1.396
414.80 1.402
414.90 1.409
415.00 1.416
415.10 1.422
415.20 1.428
415.30 1.435
415.40 1.44
415.50 1.446
415.60 1.452
415.70 1.457
415.80 1.463
415.90 1.468
416.00 1.473
416.10 1.478
416.20 1.483
416.30 1.488
416.40 1.492
416.50 1.497
416.60 1.501
416.70 1.505
416.80 1.509
416.90 1.513
417.00 1.517
417.10 1.52
417.20 1.524
417.30 1.527
417.40 1.531
417.50 1.534
417.60 1.537
417.70 1.54
417.80 1.543
417.90 1.546
418.00 1.548
418.10 1.551
418.20 1.553
418.30 1.555
418.40 1.558
418.50 1.56
418.60 1.562
418.70 1.564
418.80 1.565
418.90 1.567
419.00 1.569
419.10 1.57
419.20 1.572
419.30 1.573
419.40 1.574
419.50 1.575
419.60 1.576
419.70 1.577
419.80 1.578
419.90 1.579
420.00 1.579
420.10 1.58
420.20 1.58
420.30 1.581
420.40 1.581
420.50 1.581
420.60 1.581
420.70 1.581
420.80 1.581
420.90 1.581
421.00 1.581
421.10 1.58
421.20 1.58
421.30 1.58
421.40 1.579
421.50 1.578
421.60 1.577
421.70 1.577
421.80 1.576
421.90 1.575
422.00 1.574
422.10 1.572
422.20 1.571
422.30 1.57
422.40 1.568
422.50 1.567
422.60 1.565
422.70 1.564
422.80 1.562
422.90 1.56
423.00 1.558
423.10 1.556
423.20 1.554
423.30 1.552
423.40 1.549
423.50 1.547
423.60 1.544
423.70 1.542
423.80 1.539
423.90 1.537
424.00 1.534
424.10 1.531
424.20 1.528
424.30 1.525
424.40 1.522
424.50 1.519
424.60 1.515
424.70 1.512
424.80 1.508
424.90 1.505
425.00 1.501
425.10 1.497
425.20 1.493
425.30 1.489
425.40 1.485
425.50 1.481
425.60 1.477
425.70 1.473
425.80 1.468
425.90 1.464
426.00 1.459
426.10 1.454
426.20 1.448
426.30 1.443
426.40 1.438
426.50 1.433
426.60 1.428
426.70 1.422
426.80 1.417
426.90 1.412
427.00 1.406
427.10 1.4
427.20 1.394
427.30 1.388
427.40 1.382
427.50 1.376
427.60 1.37
427.70 1.364
427.80 1.357
427.90 1.351
428.00 1.344
428.10 1.337
428.20 1.331
428.30 1.324
428.40 1.317
428.50 1.309
428.60 1.302
428.70 1.295
428.80 1.287
428.90 1.28
429.00 1.272
429.10 1.264
429.20 1.256
429.30 1.248
429.40 1.24
429.50 1.232
429.60 1.223
429.70 1.215
429.80 1.206
429.90 1.197
430.00 1.188
430.10 1.179
430.20 1.17
430.30 1.161
430.40 1.152
430.50 1.142
430.60 1.133
430.70 1.123
430.80 1.113
430.90 1.103
431.00 1.092
431.10 1.082
431.20 1.071
431.30 1.06
431.40 1.05
431.50 1.039
431.60 1.027
431.70 1.016
431.80 1.004
431.90 0.9926
432.00 0.9807
432.10 0.9687
432.20 0.9563
432.30 0.9437
432.40 0.931
432.50 0.9178
432.60 0.9043
432.70 0.8906
432.80 0.8766
432.90 0.8626
433.00 0.8487
433.10 0.835
433.20 0.8213
433.30 0.8076
433.40 0.7935
433.50 0.7786
433.60 0.7629
433.70 0.7418
433.80 0.7156
433.90 0.6843
434.00 0.6482
434.10 0.6489
434.20 0.6861
434.30 0.7163
434.40 0.7412
434.50 0.761
434.60 0.7758
434.70 0.7898
434.80 0.803
434.90 0.8158
435.00 0.8285
435.10 0.8412
435.20 0.8542
435.30 0.8671
435.40 0.88
435.50 0.8926
435.60 0.9049
435.70 0.9169
435.80 0.9284
435.90 0.9397
436.00 0.9508
436.10 0.9615
436.20 0.9721
436.30 0.9825
436.40 0.9926
436.50 1.003
436.60 1.012
436.70 1.022
436.80 1.032
436.90 1.041
437.00 1.05
437.10 1.059
437.20 1.068
437.30 1.076
437.40 1.085
437.50 1.093
437.60 1.101
437.70 1.109
437.80 1.116
437.90 1.124
438.00 1.132
438.10 1.139
438.20 1.146
438.30 1.153
438.40 1.16
438.50 1.167
438.60 1.174
438.70 1.18
438.80 1.187
438.90 1.193
439.00 1.199
439.10 1.206
439.20 1.212
439.30 1.217
439.40 1.223
439.50 1.229
439.60 1.234
439.70 1.24
439.80 1.245
439.90 1.25
440.00 1.255
440.10 1.261
440.20 1.265
440.30 1.27
440.40 1.275
440.50 1.28
440.60 1.284
440.70 1.289
440.80 1.293
440.90 1.297
441.00 1.302
441.10 1.306
441.20 1.31
441.30 1.313
441.40 1.317
441.50 1.321
441.60 1.325
441.70 1.328
441.80 1.332
441.90 1.335
442.00 1.338
442.10 1.342
442.20 1.345
442.30 1.348
442.40 1.351
442.50 1.354
442.60 1.357
442.70 1.359
442.80 1.362
442.90 1.365
443.00 1.367
443.10 1.37
443.20 1.372
443.30 1.375
443.40 1.377
443.50 1.379
443.60 1.381
443.70 1.384
443.80 1.386
443.90 1.388
444.00 1.39
444.10 1.392
444.20 1.393
444.30 1.395
444.40 1.397
444.50 1.399
444.60 1.4
444.70 1.402
444.80 1.403
444.90 1.405
445.00 1.406
445.10 1.408
445.20 1.409
445.30 1.41
445.40 1.411
445.50 1.413
445.60 1.414
445.70 1.415
445.80 1.416
445.90 1.417
446.00 1.418
446.10 1.419
446.20 1.42
446.30 1.421
446.40 1.422
446.50 1.422
446.60 1.423
446.70 1.424
446.80 1.425
446.90 1.425
447.00 1.426
447.10 1.426
447.20 1.427
447.30 1.428
447.40 1.428
447.50 1.428
447.60 1.429
447.70 1.429
447.80 1.43
447.90 1.43
448.00 1.43
448.10 1.431
448.20 1.431
448.30 1.431
448.40 1.431
448.50 1.432
448.60 1.432
448.70 1.432
448.80 1.432
448.90 1.432
449.00 1.433
449.10 1.433
449.20 1.433
449.30 1.433
449.40 1.433
449.50 1.433
449.60 1.433
449.70 1.433
449.80 1.433
449.90 1.433
450.00 1.432
450.10 1.432
450.20 1.432
450.30 1.432
450.40 1.432
450.50 1.432
450.60 1.431
450.70 1.431
450.80 1.431
450.90 1.431
451.00 1.43
451.10 1.43
451.20 1.43
451.30 1.43
451.40 1.429
451.50 1.429
451.60 1.428
451.70 1.428
451.80 1.428
451.90 1.427
452.00 1.427
452.10 1.426
452.20 1.426
452.30 1.426
452.40 1.425
452.50 1.425
452.60 1.424
452.70 1.424
452.80 1.423
452.90 1.422
453.00 1.422
453.10 1.421
453.20 1.421
453.30 1.42
453.40 1.42
453.50 1.419
453.60 1.419
