# Version 2.1 - nm, norm@500 to 1, cut digits, bergeron_35000_95.dat_35000
# Wavelength(nm)  Flambda(ergs/cm^s/s/nm)
300.00 5.711
300.10 5.704
300.20 5.698
300.30 5.691
300.40 5.684
300.50 5.678
300.60 5.671
300.70 5.664
300.80 5.658
300.90 5.651
301.00 5.644
301.10 5.638
301.20 5.631
301.30 5.625
301.40 5.618
301.50 5.612
301.60 5.605
301.70 5.599
301.80 5.592
301.90 5.585
302.00 5.579
302.10 5.572
302.20 5.566
302.30 5.56
302.40 5.553
302.50 5.547
302.60 5.54
302.70 5.534
302.80 5.527
302.90 5.521
303.00 5.514
303.10 5.508
303.20 5.502
303.30 5.495
303.40 5.489
303.50 5.483
303.60 5.476
303.70 5.47
303.80 5.464
303.90 5.457
304.00 5.451
304.10 5.445
304.20 5.438
304.30 5.432
304.40 5.426
304.50 5.419
304.60 5.413
304.70 5.407
304.80 5.401
304.90 5.394
305.00 5.388
305.10 5.382
305.20 5.376
305.30 5.37
305.40 5.363
305.50 5.357
305.60 5.351
305.70 5.345
305.80 5.339
305.90 5.333
306.00 5.327
306.10 5.32
306.20 5.314
306.30 5.308
306.40 5.302
306.50 5.296
306.60 5.29
306.70 5.284
306.80 5.278
306.90 5.272
307.00 5.266
307.10 5.26
307.20 5.254
307.30 5.248
307.40 5.242
307.50 5.236
307.60 5.23
307.70 5.224
307.80 5.218
307.90 5.212
308.00 5.206
308.10 5.2
308.20 5.194
308.30 5.188
308.40 5.182
308.50 5.176
308.60 5.17
308.70 5.164
308.80 5.158
308.90 5.152
309.00 5.147
309.10 5.141
309.20 5.135
309.30 5.129
309.40 5.123
309.50 5.117
309.60 5.111
309.70 5.106
309.80 5.1
309.90 5.094
310.00 5.088
310.10 5.082
310.20 5.077
310.30 5.071
310.40 5.065
310.50 5.059
310.60 5.054
310.70 5.048
310.80 5.042
310.90 5.037
311.00 5.031
311.10 5.025
311.20 5.019
311.30 5.014
311.40 5.008
311.50 5.002
311.60 4.997
311.70 4.991
311.80 4.985
311.90 4.98
312.00 4.974
312.10 4.969
312.20 4.963
312.30 4.957
312.40 4.952
312.50 4.946
312.60 4.941
312.70 4.935
312.80 4.929
312.90 4.924
313.00 4.918
313.10 4.913
313.20 4.907
313.30 4.902
313.40 4.896
313.50 4.891
313.60 4.885
313.70 4.88
313.80 4.874
313.90 4.869
314.00 4.863
314.10 4.858
314.20 4.852
314.30 4.847
314.40 4.841
314.50 4.836
314.60 4.831
314.70 4.825
314.80 4.82
314.90 4.814
315.00 4.809
315.10 4.804
315.20 4.798
315.30 4.793
315.40 4.788
315.50 4.782
315.60 4.777
315.70 4.771
315.80 4.766
315.90 4.761
316.00 4.755
316.10 4.75
316.20 4.745
316.30 4.74
316.40 4.734
316.50 4.729
316.60 4.724
316.70 4.718
316.80 4.713
316.90 4.708
317.00 4.703
317.10 4.697
317.20 4.692
317.30 4.687
317.40 4.682
317.50 4.677
317.60 4.671
317.70 4.666
317.80 4.661
317.90 4.656
318.00 4.651
318.10 4.646
318.20 4.64
318.30 4.635
318.40 4.63
318.50 4.625
318.60 4.62
318.70 4.615
318.80 4.61
318.90 4.604
319.00 4.599
319.10 4.594
319.20 4.589
319.30 4.584
319.40 4.579
319.50 4.574
319.60 4.569
319.70 4.564
319.80 4.559
319.90 4.554
320.00 4.549
320.10 4.544
320.20 4.539
320.30 4.534
320.40 4.529
320.50 4.524
320.60 4.519
320.70 4.514
320.80 4.509
320.90 4.504
321.00 4.499
321.10 4.494
321.20 4.489
321.30 4.484
321.40 4.479
321.50 4.474
321.60 4.469
321.70 4.464
321.80 4.459
321.90 4.455
322.00 4.45
322.10 4.445
322.20 4.44
322.30 4.435
322.40 4.43
322.50 4.425
322.60 4.42
322.70 4.416
322.80 4.411
322.90 4.406
323.00 4.401
323.10 4.396
323.20 4.391
323.30 4.387
323.40 4.382
323.50 4.377
323.60 4.372
323.70 4.368
323.80 4.363
323.90 4.358
324.00 4.353
324.10 4.348
324.20 4.344
324.30 4.339
324.40 4.334
324.50 4.33
324.60 4.325
324.70 4.32
324.80 4.315
324.90 4.311
325.00 4.306
325.10 4.301
325.20 4.297
325.30 4.292
325.40 4.287
325.50 4.283
325.60 4.278
325.70 4.273
325.80 4.269
325.90 4.264
326.00 4.259
326.10 4.255
326.20 4.25
326.30 4.246
326.40 4.241
326.50 4.236
326.60 4.232
326.70 4.227
326.80 4.223
326.90 4.218
327.00 4.213
327.10 4.209
327.20 4.204
327.30 4.2
327.40 4.195
327.50 4.191
327.60 4.186
327.70 4.182
327.80 4.177
327.90 4.173
328.00 4.168
328.10 4.164
328.20 4.159
328.30 4.155
328.40 4.15
328.50 4.146
328.60 4.141
328.70 4.137
328.80 4.132
328.90 4.128
329.00 4.123
329.10 4.119
329.20 4.115
329.30 4.11
329.40 4.106
329.50 4.101
329.60 4.097
329.70 4.092
329.80 4.088
329.90 4.084
330.00 4.079
330.10 4.075
330.20 4.071
330.30 4.066
330.40 4.062
330.50 4.058
330.60 4.053
330.70 4.049
330.80 4.045
330.90 4.04
331.00 4.036
331.10 4.032
331.20 4.027
331.30 4.023
331.40 4.019
331.50 4.014
331.60 4.01
331.70 4.006
331.80 4.001
331.90 3.997
332.00 3.993
332.10 3.989
332.20 3.984
332.30 3.98
332.40 3.976
332.50 3.972
332.60 3.967
332.70 3.963
332.80 3.959
332.90 3.955
333.00 3.951
333.10 3.946
333.20 3.942
333.30 3.938
333.40 3.934
333.50 3.93
333.60 3.925
333.70 3.921
333.80 3.917
333.90 3.913
334.00 3.909
334.10 3.905
334.20 3.9
334.30 3.896
334.40 3.892
334.50 3.888
334.60 3.884
334.70 3.88
334.80 3.876
334.90 3.872
335.00 3.867
335.10 3.863
335.20 3.859
335.30 3.855
335.40 3.851
335.50 3.847
335.60 3.843
335.70 3.839
335.80 3.835
335.90 3.831
336.00 3.827
336.10 3.823
336.20 3.819
336.30 3.815
336.40 3.811
336.50 3.807
336.60 3.803
336.70 3.799
336.80 3.795
336.90 3.791
337.00 3.787
337.10 3.783
337.20 3.779
337.30 3.775
337.40 3.771
337.50 3.767
337.60 3.763
337.70 3.759
337.80 3.755
337.90 3.751
338.00 3.747
338.10 3.743
338.20 3.739
338.30 3.735
338.40 3.731
338.50 3.727
338.60 3.723
338.70 3.72
338.80 3.716
338.90 3.712
339.00 3.708
339.10 3.704
339.20 3.7
339.30 3.696
339.40 3.692
339.50 3.689
339.60 3.685
339.70 3.681
339.80 3.677
339.90 3.673
340.00 3.669
340.10 3.665
340.20 3.662
340.30 3.658
340.40 3.654
340.50 3.65
340.60 3.646
340.70 3.643
340.80 3.639
340.90 3.635
341.00 3.631
341.10 3.627
341.20 3.624
341.30 3.62
341.40 3.616
341.50 3.612
341.60 3.609
341.70 3.605
341.80 3.601
341.90 3.597
342.00 3.594
342.10 3.59
342.20 3.586
342.30 3.582
342.40 3.579
342.50 3.575
342.60 3.571
342.70 3.568
342.80 3.564
342.90 3.56
343.00 3.556
343.10 3.553
343.20 3.549
343.30 3.545
343.40 3.542
343.50 3.538
343.60 3.534
343.70 3.531
343.80 3.527
343.90 3.523
344.00 3.52
344.10 3.516
344.20 3.513
344.30 3.509
344.40 3.505
344.50 3.502
344.60 3.498
344.70 3.494
344.80 3.491
344.90 3.487
345.00 3.484
345.10 3.48
345.20 3.476
345.30 3.473
345.40 3.469
345.50 3.466
345.60 3.462
345.70 3.459
345.80 3.455
345.90 3.451
346.00 3.448
346.10 3.444
346.20 3.441
346.30 3.437
346.40 3.434
346.50 3.43
346.60 3.427
346.70 3.423
346.80 3.42
346.90 3.416
347.00 3.413
347.10 3.409
347.20 3.406
347.30 3.402
347.40 3.399
347.50 3.395
347.60 3.392
347.70 3.388
347.80 3.385
347.90 3.381
348.00 3.378
348.10 3.374
348.20 3.371
348.30 3.368
348.40 3.364
348.50 3.361
348.60 3.357
348.70 3.354
348.80 3.35
348.90 3.347
349.00 3.344
349.10 3.34
349.20 3.337
349.30 3.333
349.40 3.33
349.50 3.327
349.60 3.323
349.70 3.32
349.80 3.316
349.90 3.313
350.00 3.31
350.10 3.306
350.20 3.303
350.30 3.3
350.40 3.296
350.50 3.293
350.60 3.29
350.70 3.286
350.80 3.283
350.90 3.28
351.00 3.276
351.10 3.273
351.20 3.27
351.30 3.266
351.40 3.263
351.50 3.26
351.60 3.256
351.70 3.253
351.80 3.25
351.90 3.246
352.00 3.243
352.10 3.24
352.20 3.237
352.30 3.233
352.40 3.23
352.50 3.227
352.60 3.224
352.70 3.22
352.80 3.217
352.90 3.214
353.00 3.211
353.10 3.207
353.20 3.204
353.30 3.201
353.40 3.198
353.50 3.194
353.60 3.191
353.70 3.188
353.80 3.185
353.90 3.182
354.00 3.178
354.10 3.175
354.20 3.172
354.30 3.169
354.40 3.166
354.50 3.162
354.60 3.159
354.70 3.156
354.80 3.153
354.90 3.15
355.00 3.147
355.10 3.143
355.20 3.14
355.30 3.137
355.40 3.134
355.50 3.131
355.60 3.128
355.70 3.124
355.80 3.121
355.90 3.118
356.00 3.115
356.10 3.112
356.20 3.109
356.30 3.106
356.40 3.103
356.50 3.1
356.60 3.096
356.70 3.093
356.80 3.09
356.90 3.087
357.00 3.084
357.10 3.081
357.20 3.078
357.30 3.075
357.40 3.072
357.50 3.069
357.60 3.066
357.70 3.063
357.80 3.06
357.90 3.056
358.00 3.053
358.10 3.05
358.20 3.047
358.30 3.044
358.40 3.041
358.50 3.038
358.60 3.035
358.70 3.032
358.80 3.029
358.90 3.026
359.00 3.023
359.10 3.02
359.20 3.017
359.30 3.014
359.40 3.011
359.50 3.008
359.60 3.005
359.70 3.002
359.80 2.999
359.90 2.996
360.00 2.993
360.10 2.99
360.20 2.987
360.30 2.984
360.40 2.981
360.50 2.979
360.60 2.976
360.70 2.973
360.80 2.97
360.90 2.967
361.00 2.964
361.10 2.961
361.20 2.958
361.30 2.955
361.40 2.952
361.50 2.949
361.60 2.946
361.70 2.943
361.80 2.94
361.90 2.938
362.00 2.935
362.10 2.932
362.20 2.929
362.30 2.926
362.40 2.923
362.50 2.92
362.60 2.917
362.70 2.915
362.80 2.912
362.90 2.909
363.00 2.906
363.10 2.903
363.20 2.9
363.30 2.897
363.40 2.895
363.50 2.892
363.60 2.889
363.70 2.886
363.80 2.883
363.90 2.88
364.00 2.878
364.10 2.875
364.20 2.872
364.30 2.869
364.40 2.866
364.50 2.863
364.60 2.861
364.70 2.858
364.80 2.855
364.90 2.852
365.00 2.849
365.10 2.847
365.20 2.844
365.30 2.841
365.40 2.838
365.50 2.836
365.60 2.833
365.70 2.83
365.80 2.827
365.90 2.824
366.00 2.822
366.10 2.819
366.20 2.816
366.30 2.813
366.40 2.81
366.50 2.808
366.60 2.805
366.70 2.802
366.80 2.799
366.90 2.796
367.00 2.794
367.10 2.791
367.20 2.788
367.30 2.785
367.40 2.783
367.50 2.78
367.60 2.777
367.70 2.774
367.80 2.771
367.90 2.769
368.00 2.766
368.10 2.763
368.20 2.76
368.30 2.757
368.40 2.754
368.50 2.751
368.60 2.749
368.70 2.746
368.80 2.743
368.90 2.74
369.00 2.737
369.10 2.734
369.20 2.731
369.30 2.728
369.40 2.726
369.50 2.723
369.60 2.72
369.70 2.717
369.80 2.714
369.90 2.711
370.00 2.708
370.10 2.706
370.20 2.703
370.30 2.7
370.40 2.697
370.50 2.694
370.60 2.692
370.70 2.689
370.80 2.686
370.90 2.683
371.00 2.68
371.10 2.678
371.20 2.675
371.30 2.672
371.40 2.669
371.50 2.666
371.60 2.664
371.70 2.661
371.80 2.658
371.90 2.655
372.00 2.652
372.10 2.65
372.20 2.647
372.30 2.645
372.40 2.643
372.50 2.64
372.60 2.638
372.70 2.635
372.80 2.633
372.90 2.63
373.00 2.628
373.10 2.625
373.20 2.623
373.30 2.62
373.40 2.618
373.50 2.615
373.60 2.613
373.70 2.611
373.80 2.608
373.90 2.606
374.00 2.603
374.10 2.601
374.20 2.598
374.30 2.595
374.40 2.592
374.50 2.59
374.60 2.587
374.70 2.584
374.80 2.582
374.90 2.579
375.00 2.576
375.10 2.574
375.20 2.571
375.30 2.569
375.40 2.566
375.50 2.563
375.60 2.561
375.70 2.558
375.80 2.555
375.90 2.553
376.00 2.55
376.10 2.547
376.20 2.545
376.30 2.542
376.40 2.54
376.50 2.537
376.60 2.534
376.70 2.532
376.80 2.529
376.90 2.527
377.00 2.524
377.10 2.522
377.20 2.519
377.30 2.517
377.40 2.514
377.50 2.512
377.60 2.509
377.70 2.507
377.80 2.504
377.90 2.502
378.00 2.5
378.10 2.497
378.20 2.495
378.30 2.492
378.40 2.49
378.50 2.488
378.60 2.485
378.70 2.483
378.80 2.48
378.90 2.478
379.00 2.476
379.10 2.473
379.20 2.471
379.30 2.468
379.40 2.466
379.50 2.464
379.60 2.461
379.70 2.459
379.80 2.456
379.90 2.454
380.00 2.452
380.10 2.449
380.20 2.447
380.30 2.445
380.40 2.443
380.50 2.44
380.60 2.438
380.70 2.436
380.80 2.433
380.90 2.431
381.00 2.429
381.10 2.427
381.20 2.424
381.30 2.422
381.40 2.42
381.50 2.418
381.60 2.415
381.70 2.413
381.80 2.411
381.90 2.409
382.00 2.406
382.10 2.404
382.20 2.402
382.30 2.4
382.40 2.398
382.50 2.395
382.60 2.393
382.70 2.391
382.80 2.389
382.90 2.386
383.00 2.384
383.10 2.382
383.20 2.38
383.30 2.378
383.40 2.375
383.50 2.373
383.60 2.371
383.70 2.369
383.80 2.367
383.90 2.365
384.00 2.363
384.10 2.361
384.20 2.359
384.30 2.357
384.40 2.355
384.50 2.353
384.60 2.351
384.70 2.349
384.80 2.347
384.90 2.345
385.00 2.343
385.10 2.341
385.20 2.339
385.30 2.337
385.40 2.335
385.50 2.333
385.60 2.331
385.70 2.329
385.80 2.327
385.90 2.325
386.00 2.323
386.10 2.321
386.20 2.319
386.30 2.317
386.40 2.315
386.50 2.313
386.60 2.311
386.70 2.309
386.80 2.307
386.90 2.305
387.00 2.303
387.10 2.3
387.20 2.298
387.30 2.296
387.40 2.294
387.50 2.292
387.60 2.29
387.70 2.288
387.80 2.286
387.90 2.284
388.00 2.281
388.10 2.279
388.20 2.277
388.30 2.275
388.40 2.273
388.50 2.271
388.60 2.269
388.70 2.267
388.80 2.265
388.90 2.264
389.00 2.262
389.10 2.26
389.20 2.259
389.30 2.257
389.40 2.256
389.50 2.254
389.60 2.253
389.70 2.251
389.80 2.25
389.90 2.248
390.00 2.247
390.10 2.245
390.20 2.244
390.30 2.242
390.40 2.241
390.50 2.239
390.60 2.238
390.70 2.236
390.80 2.235
390.90 2.233
391.00 2.232
391.10 2.23
391.20 2.228
391.30 2.227
391.40 2.225
391.50 2.223
391.60 2.222
391.70 2.22
391.80 2.218
391.90 2.216
392.00 2.215
392.10 2.213
392.20 2.211
392.30 2.209
392.40 2.207
392.50 2.205
392.60 2.203
392.70 2.201
392.80 2.199
392.90 2.197
393.00 2.195
393.10 2.193
393.20 2.191
393.30 2.188
393.40 2.186
393.50 2.184
393.60 2.182
393.70 2.179
393.80 2.177
393.90 2.174
394.00 2.172
394.10 2.17
394.20 2.167
394.30 2.165
394.40 2.162
394.50 2.159
394.60 2.157
394.70 2.154
394.80 2.152
394.90 2.149
395.00 2.146
395.10 2.143
395.20 2.141
395.30 2.138
395.40 2.135
395.50 2.132
395.60 2.129
395.70 2.126
395.80 2.124
395.90 2.121
396.00 2.118
396.10 2.115
396.20 2.112
396.30 2.109
396.40 2.106
396.50 2.103
396.60 2.101
396.70 2.098
396.80 2.096
396.90 2.093
397.00 2.09
397.10 2.09
397.20 2.09
397.30 2.089
397.40 2.089
397.50 2.089
397.60 2.089
397.70 2.089
397.80 2.089
397.90 2.089
398.00 2.089
398.10 2.089
398.20 2.089
398.30 2.089
398.40 2.089
398.50 2.088
398.60 2.088
398.70 2.088
398.80 2.088
398.90 2.088
399.00 2.088
399.10 2.087
399.20 2.087
399.30 2.087
399.40 2.087
399.50 2.086
399.60 2.086
399.70 2.085
399.80 2.085
399.90 2.084
400.00 2.084
400.10 2.083
400.20 2.082
400.30 2.082
400.40 2.081
400.50 2.08
400.60 2.079
400.70 2.078
400.80 2.077
400.90 2.076
401.00 2.075
401.10 2.074
401.20 2.073
401.30 2.072
401.40 2.071
401.50 2.07
401.60 2.068
401.70 2.067
401.80 2.065
401.90 2.064
402.00 2.062
402.10 2.061
402.20 2.059
402.30 2.058
402.40 2.056
402.50 2.054
402.60 2.052
402.70 2.051
402.80 2.049
402.90 2.047
403.00 2.045
403.10 2.043
403.20 2.041
403.30 2.038
403.40 2.036
403.50 2.034
403.60 2.032
403.70 2.029
403.80 2.027
403.90 2.024
404.00 2.022
404.10 2.019
404.20 2.017
404.30 2.014
404.40 2.011
404.50 2.008
404.60 2.005
404.70 2.002
404.80 1.999
404.90 1.996
405.00 1.993
405.10 1.99
405.20 1.987
405.30 1.983
405.40 1.98
405.50 1.977
405.60 1.973
405.70 1.97
405.80 1.966
405.90 1.962
406.00 1.958
406.10 1.955
406.20 1.951
406.30 1.947
406.40 1.943
406.50 1.939
406.60 1.935
406.70 1.93
406.80 1.926
406.90 1.922
407.00 1.917
407.10 1.913
407.20 1.908
407.30 1.904
407.40 1.899
407.50 1.894
407.60 1.889
407.70 1.885
407.80 1.88
407.90 1.875
408.00 1.87
408.10 1.865
408.20 1.86
408.30 1.855
408.40 1.849
408.50 1.844
408.60 1.839
408.70 1.834
408.80 1.829
408.90 1.824
409.00 1.819
409.10 1.814
409.20 1.809
409.30 1.804
409.40 1.8
409.50 1.795
409.60 1.791
409.70 1.788
409.80 1.785
409.90 1.782
410.00 1.781
410.10 1.78
410.20 1.779
410.30 1.777
410.40 1.776
410.50 1.775
410.60 1.776
410.70 1.776
410.80 1.778
410.90 1.779
411.00 1.781
411.10 1.783
411.20 1.785
411.30 1.787
411.40 1.79
411.50 1.792
411.60 1.795
411.70 1.797
411.80 1.8
411.90 1.802
412.00 1.805
412.10 1.807
412.20 1.809
412.30 1.812
412.40 1.814
412.50 1.816
412.60 1.819
412.70 1.821
412.80 1.823
412.90 1.825
413.00 1.827
413.10 1.829
413.20 1.831
413.30 1.833
413.40 1.835
413.50 1.836
413.60 1.838
413.70 1.84
413.80 1.841
413.90 1.843
414.00 1.844
414.10 1.845
414.20 1.847
414.30 1.848
414.40 1.849
414.50 1.85
414.60 1.851
414.70 1.852
414.80 1.853
414.90 1.854
415.00 1.855
415.10 1.856
415.20 1.856
415.30 1.857
415.40 1.858
415.50 1.858
415.60 1.859
415.70 1.859
415.80 1.859
415.90 1.86
416.00 1.86
416.10 1.86
416.20 1.861
416.30 1.861
416.40 1.861
416.50 1.861
416.60 1.861
416.70 1.861
416.80 1.861
416.90 1.861
417.00 1.861
417.10 1.861
417.20 1.86
417.30 1.86
417.40 1.86
417.50 1.86
417.60 1.859
417.70 1.859
417.80 1.858
417.90 1.858
418.00 1.857
418.10 1.857
418.20 1.856
418.30 1.856
418.40 1.855
418.50 1.854
418.60 1.854
418.70 1.853
418.80 1.852
418.90 1.851
419.00 1.851
419.10 1.85
419.20 1.849
419.30 1.848
419.40 1.847
419.50 1.846
419.60 1.845
419.70 1.844
419.80 1.843
419.90 1.842
420.00 1.84
420.10 1.839
420.20 1.838
420.30 1.837
420.40 1.836
420.50 1.834
420.60 1.833
420.70 1.832
420.80 1.83
420.90 1.829
421.00 1.827
421.10 1.826
421.20 1.824
421.30 1.823
421.40 1.821
421.50 1.82
421.60 1.818
421.70 1.817
421.80 1.815
421.90 1.813
422.00 1.812
422.10 1.81
422.20 1.808
422.30 1.806
422.40 1.805
422.50 1.803
422.60 1.801
422.70 1.799
422.80 1.797
422.90 1.795
423.00 1.793
423.10 1.791
423.20 1.789
423.30 1.787
423.40 1.785
423.50 1.783
423.60 1.78
423.70 1.778
423.80 1.776
423.90 1.774
424.00 1.771
424.10 1.769
424.20 1.767
424.30 1.764
424.40 1.762
424.50 1.759
424.60 1.757
424.70 1.754
424.80 1.752
424.90 1.749
425.00 1.747
425.10 1.744
425.20 1.741
425.30 1.738
425.40 1.736
425.50 1.733
425.60 1.73
425.70 1.727
425.80 1.724
425.90 1.721
426.00 1.718
426.10 1.715
426.20 1.712
426.30 1.709
426.40 1.705
426.50 1.702
426.60 1.699
426.70 1.695
426.80 1.692
426.90 1.689
427.00 1.685
427.10 1.682
427.20 1.678
427.30 1.674
427.40 1.671
427.50 1.667
427.60 1.663
427.70 1.659
427.80 1.655
427.90 1.651
428.00 1.647
428.10 1.643
428.20 1.639
428.30 1.635
428.40 1.631
428.50 1.626
428.60 1.622
428.70 1.617
428.80 1.613
428.90 1.608
429.00 1.604
429.10 1.599
429.20 1.594
429.30 1.589
429.40 1.584
429.50 1.579
429.60 1.574
429.70 1.569
429.80 1.564
429.90 1.559
430.00 1.553
430.10 1.548
430.20 1.542
430.30 1.537
430.40 1.531
430.50 1.525
430.60 1.52
430.70 1.514
430.80 1.508
430.90 1.502
431.00 1.495
431.10 1.489
431.20 1.483
431.30 1.476
431.40 1.47
431.50 1.463
431.60 1.457
431.70 1.45
431.80 1.443
431.90 1.436
432.00 1.429
432.10 1.422
432.20 1.415
432.30 1.408
432.40 1.401
432.50 1.393
432.60 1.386
432.70 1.378
432.80 1.371
432.90 1.363
433.00 1.355
433.10 1.348
433.20 1.34
433.30 1.331
433.40 1.323
433.50 1.314
433.60 1.305
433.70 1.295
433.80 1.284
433.90 1.272
434.00 1.26
434.10 1.26
434.20 1.271
434.30 1.281
434.40 1.29
434.50 1.298
434.60 1.305
434.70 1.311
434.80 1.318
434.90 1.324
435.00 1.33
435.10 1.336
435.20 1.341
435.30 1.347
435.40 1.352
435.50 1.358
435.60 1.363
435.70 1.368
435.80 1.373
435.90 1.378
436.00 1.383
436.10 1.388
436.20 1.392
436.30 1.397
436.40 1.401
436.50 1.406
436.60 1.41
436.70 1.414
436.80 1.419
436.90 1.423
437.00 1.426
437.10 1.43
437.20 1.434
437.30 1.438
437.40 1.441
437.50 1.445
437.60 1.448
437.70 1.451
437.80 1.455
437.90 1.458
438.00 1.461
438.10 1.464
438.20 1.466
438.30 1.469
438.40 1.472
438.50 1.475
438.60 1.477
438.70 1.48
438.80 1.482
438.90 1.484
439.00 1.487
439.10 1.489
439.20 1.491
439.30 1.493
439.40 1.495
439.50 1.497
439.60 1.499
439.70 1.5
439.80 1.502
439.90 1.504
440.00 1.505
440.10 1.507
440.20 1.508
440.30 1.51
440.40 1.511
440.50 1.512
440.60 1.513
440.70 1.515
440.80 1.516
440.90 1.517
441.00 1.518
441.10 1.519
441.20 1.52
441.30 1.521
441.40 1.522
441.50 1.522
441.60 1.523
441.70 1.524
441.80 1.524
441.90 1.525
442.00 1.526
442.10 1.526
442.20 1.527
442.30 1.527
442.40 1.528
442.50 1.528
442.60 1.528
442.70 1.529
442.80 1.529
442.90 1.529
443.00 1.529
443.10 1.53
443.20 1.53
443.30 1.53
443.40 1.53
443.50 1.53
443.60 1.53
443.70 1.53
443.80 1.53
443.90 1.53
444.00 1.53
444.10 1.53
444.20 1.53
444.30 1.53
444.40 1.529
444.50 1.529
444.60 1.529
444.70 1.529
444.80 1.528
444.90 1.528
445.00 1.528
445.10 1.528
445.20 1.527
445.30 1.527
445.40 1.526
445.50 1.526
445.60 1.526
445.70 1.525
445.80 1.525
445.90 1.524
446.00 1.524
446.10 1.523
446.20 1.523
446.30 1.522
446.40 1.522
446.50 1.521
446.60 1.521
446.70 1.52
446.80 1.519
446.90 1.519
447.00 1.518
447.10 1.517
447.20 1.517
447.30 1.516
447.40 1.515
447.50 1.515
447.60 1.514
447.70 1.513
447.80 1.513
447.90 1.512
448.00 1.511
448.10 1.51
448.20 1.51
448.30 1.509
448.40 1.508
448.50 1.507
448.60 1.506
448.70 1.506
448.80 1.505
448.90 1.504
449.00 1.503
449.10 1.502
449.20 1.501
449.30 1.501
449.40 1.5
449.50 1.499
449.60 1.498
449.70 1.497
449.80 1.496
449.90 1.495
450.00 1.494
450.10 1.494
450.20 1.493
450.30 1.492
450.40 1.491
450.50 1.49
450.60 1.489
450.70 1.488
450.80 1.487
450.90 1.486
451.00 1.485
451.10 1.484
451.20 1.483
451.30 1.482
451.40 1.481
451.50 1.48
451.60 1.479
451.70 1.478
451.80 1.477
451.90 1.476
452.00 1.475
452.10 1.474
452.20 1.473
452.30 1.472
452.40 1.471
452.50 1.47
452.60 1.469
452.70 1.468
452.80 1.467
452.90 1.466
453.00 1.465
453.10 1.464
453.20 1.463
453.30 1.462
453.40 1.461
453.50 1.46
453.60 1.459
453.70 1.457
453.80 1.456
453.90 1.455
454.00 1.454
454.10 1.453
454.20 1.452
