# Version 2.1 - nm, norm@500 to 1, cut digits, bergeron_45000_80.dat_45000
# Wavelength(nm)  Flambda(ergs/cm^s/s/nm)
300.00 6.046
300.10 6.038
300.20 6.031
300.30 6.024
300.40 6.017
300.50 6.009
300.60 6.002
300.70 5.995
300.80 5.988
300.90 5.981
301.00 5.974
301.10 5.967
301.20 5.959
301.30 5.952
301.40 5.945
301.50 5.938
301.60 5.931
301.70 5.924
301.80 5.917
301.90 5.91
302.00 5.903
302.10 5.896
302.20 5.889
302.30 5.882
302.40 5.875
302.50 5.868
302.60 5.861
302.70 5.854
302.80 5.847
302.90 5.84
303.00 5.833
303.10 5.826
303.20 5.819
303.30 5.813
303.40 5.806
303.50 5.799
303.60 5.792
303.70 5.785
303.80 5.778
303.90 5.771
304.00 5.765
304.10 5.758
304.20 5.751
304.30 5.744
304.40 5.737
304.50 5.731
304.60 5.724
304.70 5.717
304.80 5.71
304.90 5.704
305.00 5.697
305.10 5.69
305.20 5.684
305.30 5.677
305.40 5.67
305.50 5.663
305.60 5.657
305.70 5.65
305.80 5.644
305.90 5.637
306.00 5.63
306.10 5.624
306.20 5.617
306.30 5.61
306.40 5.604
306.50 5.597
306.60 5.591
306.70 5.584
306.80 5.578
306.90 5.571
307.00 5.565
307.10 5.558
307.20 5.552
307.30 5.545
307.40 5.539
307.50 5.532
307.60 5.526
307.70 5.519
307.80 5.513
307.90 5.506
308.00 5.5
308.10 5.493
308.20 5.487
308.30 5.481
308.40 5.474
308.50 5.468
308.60 5.461
308.70 5.455
308.80 5.449
308.90 5.442
309.00 5.436
309.10 5.43
309.20 5.423
309.30 5.417
309.40 5.411
309.50 5.405
309.60 5.398
309.70 5.392
309.80 5.386
309.90 5.379
310.00 5.373
310.10 5.367
310.20 5.361
310.30 5.355
310.40 5.348
310.50 5.342
310.60 5.336
310.70 5.33
310.80 5.324
310.90 5.317
311.00 5.311
311.10 5.305
311.20 5.299
311.30 5.293
311.40 5.287
311.50 5.281
311.60 5.274
311.70 5.268
311.80 5.262
311.90 5.256
312.00 5.25
312.10 5.244
312.20 5.238
312.30 5.232
312.40 5.226
312.50 5.22
312.60 5.214
312.70 5.208
312.80 5.202
312.90 5.196
313.00 5.19
313.10 5.184
313.20 5.178
313.30 5.172
313.40 5.166
313.50 5.16
313.60 5.154
313.70 5.148
313.80 5.142
313.90 5.137
314.00 5.131
314.10 5.125
314.20 5.119
314.30 5.113
314.40 5.107
314.50 5.101
314.60 5.095
314.70 5.09
314.80 5.084
314.90 5.078
315.00 5.072
315.10 5.066
315.20 5.061
315.30 5.055
315.40 5.049
315.50 5.043
315.60 5.038
315.70 5.032
315.80 5.026
315.90 5.02
316.00 5.015
316.10 5.009
316.20 5.003
316.30 4.997
316.40 4.992
316.50 4.986
316.60 4.98
316.70 4.975
316.80 4.969
316.90 4.963
317.00 4.958
317.10 4.952
317.20 4.946
317.30 4.941
317.40 4.935
317.50 4.93
317.60 4.924
317.70 4.918
317.80 4.913
317.90 4.907
318.00 4.902
318.10 4.896
318.20 4.891
318.30 4.885
318.40 4.88
318.50 4.874
318.60 4.869
318.70 4.863
318.80 4.857
318.90 4.852
319.00 4.846
319.10 4.841
319.20 4.836
319.30 4.83
319.40 4.825
319.50 4.819
319.60 4.814
319.70 4.808
319.80 4.803
319.90 4.797
320.00 4.792
320.10 4.787
320.20 4.781
320.30 4.776
320.40 4.77
320.50 4.765
320.60 4.76
320.70 4.754
320.80 4.749
320.90 4.744
321.00 4.738
321.10 4.733
321.20 4.728
321.30 4.722
321.40 4.717
321.50 4.712
321.60 4.707
321.70 4.701
321.80 4.696
321.90 4.691
322.00 4.685
322.10 4.68
322.20 4.675
322.30 4.67
322.40 4.664
322.50 4.659
322.60 4.654
322.70 4.649
322.80 4.644
322.90 4.638
323.00 4.633
323.10 4.628
323.20 4.623
323.30 4.618
323.40 4.613
323.50 4.607
323.60 4.602
323.70 4.597
323.80 4.592
323.90 4.587
324.00 4.582
324.10 4.577
324.20 4.572
324.30 4.567
324.40 4.561
324.50 4.556
324.60 4.551
324.70 4.546
324.80 4.541
324.90 4.536
325.00 4.531
325.10 4.526
325.20 4.521
325.30 4.516
325.40 4.511
325.50 4.506
325.60 4.501
325.70 4.496
325.80 4.491
325.90 4.486
326.00 4.481
326.10 4.476
326.20 4.471
326.30 4.466
326.40 4.461
326.50 4.456
326.60 4.451
326.70 4.446
326.80 4.442
326.90 4.437
327.00 4.432
327.10 4.427
327.20 4.422
327.30 4.417
327.40 4.412
327.50 4.407
327.60 4.402
327.70 4.398
327.80 4.393
327.90 4.388
328.00 4.383
328.10 4.378
328.20 4.373
328.30 4.369
328.40 4.364
328.50 4.359
328.60 4.354
328.70 4.349
328.80 4.345
328.90 4.34
329.00 4.335
329.10 4.33
329.20 4.326
329.30 4.321
329.40 4.316
329.50 4.311
329.60 4.307
329.70 4.302
329.80 4.297
329.90 4.292
330.00 4.288
330.10 4.283
330.20 4.278
330.30 4.274
330.40 4.269
330.50 4.264
330.60 4.26
330.70 4.255
330.80 4.25
330.90 4.246
331.00 4.241
331.10 4.236
331.20 4.232
331.30 4.227
331.40 4.223
331.50 4.218
331.60 4.213
331.70 4.209
331.80 4.204
331.90 4.2
332.00 4.195
332.10 4.19
332.20 4.186
332.30 4.181
332.40 4.177
332.50 4.172
332.60 4.168
332.70 4.163
332.80 4.159
332.90 4.154
333.00 4.15
333.10 4.145
333.20 4.141
333.30 4.136
333.40 4.132
333.50 4.127
333.60 4.123
333.70 4.118
333.80 4.114
333.90 4.109
334.00 4.105
334.10 4.1
334.20 4.096
334.30 4.091
334.40 4.087
334.50 4.083
334.60 4.078
334.70 4.074
334.80 4.069
334.90 4.065
335.00 4.061
335.10 4.056
335.20 4.052
335.30 4.047
335.40 4.043
335.50 4.039
335.60 4.034
335.70 4.03
335.80 4.026
335.90 4.021
336.00 4.017
336.10 4.013
336.20 4.008
336.30 4.004
336.40 4
336.50 3.995
336.60 3.991
336.70 3.987
336.80 3.982
336.90 3.978
337.00 3.974
337.10 3.97
337.20 3.965
337.30 3.961
337.40 3.957
337.50 3.953
337.60 3.948
337.70 3.944
337.80 3.94
337.90 3.936
338.00 3.931
338.10 3.927
338.20 3.923
338.30 3.919
338.40 3.915
338.50 3.91
338.60 3.906
338.70 3.902
338.80 3.898
338.90 3.894
339.00 3.89
339.10 3.885
339.20 3.881
339.30 3.877
339.40 3.873
339.50 3.869
339.60 3.865
339.70 3.861
339.80 3.856
339.90 3.852
340.00 3.848
340.10 3.844
340.20 3.84
340.30 3.836
340.40 3.832
340.50 3.828
340.60 3.824
340.70 3.82
340.80 3.816
340.90 3.812
341.00 3.807
341.10 3.803
341.20 3.799
341.30 3.795
341.40 3.791
341.50 3.787
341.60 3.783
341.70 3.779
341.80 3.775
341.90 3.771
342.00 3.767
342.10 3.763
342.20 3.759
342.30 3.755
342.40 3.751
342.50 3.747
342.60 3.743
342.70 3.739
342.80 3.735
342.90 3.731
343.00 3.728
343.10 3.724
343.20 3.72
343.30 3.716
343.40 3.712
343.50 3.708
343.60 3.704
343.70 3.7
343.80 3.696
343.90 3.692
344.00 3.688
344.10 3.684
344.20 3.681
344.30 3.677
344.40 3.673
344.50 3.669
344.60 3.665
344.70 3.661
344.80 3.657
344.90 3.654
345.00 3.65
345.10 3.646
345.20 3.642
345.30 3.638
345.40 3.634
345.50 3.631
345.60 3.627
345.70 3.623
345.80 3.619
345.90 3.615
346.00 3.611
346.10 3.608
346.20 3.604
346.30 3.6
346.40 3.596
346.50 3.593
346.60 3.589
346.70 3.585
346.80 3.581
346.90 3.578
347.00 3.574
347.10 3.57
347.20 3.566
347.30 3.563
347.40 3.559
347.50 3.555
347.60 3.551
347.70 3.548
347.80 3.544
347.90 3.54
348.00 3.537
348.10 3.533
348.20 3.529
348.30 3.526
348.40 3.522
348.50 3.518
348.60 3.515
348.70 3.511
348.80 3.507
348.90 3.504
349.00 3.5
349.10 3.496
349.20 3.493
349.30 3.489
349.40 3.485
349.50 3.482
349.60 3.478
349.70 3.475
349.80 3.471
349.90 3.467
350.00 3.464
350.10 3.46
350.20 3.457
350.30 3.453
350.40 3.449
350.50 3.446
350.60 3.442
350.70 3.439
350.80 3.435
350.90 3.432
351.00 3.428
351.10 3.425
351.20 3.421
351.30 3.417
351.40 3.414
351.50 3.41
351.60 3.407
351.70 3.403
351.80 3.4
351.90 3.396
352.00 3.393
352.10 3.389
352.20 3.386
352.30 3.382
352.40 3.379
352.50 3.375
352.60 3.372
352.70 3.368
352.80 3.365
352.90 3.361
353.00 3.358
353.10 3.355
353.20 3.351
353.30 3.348
353.40 3.344
353.50 3.341
353.60 3.337
353.70 3.334
353.80 3.33
353.90 3.327
354.00 3.324
354.10 3.32
354.20 3.317
354.30 3.313
354.40 3.31
354.50 3.307
354.60 3.303
354.70 3.3
354.80 3.296
354.90 3.293
355.00 3.29
355.10 3.286
355.20 3.283
355.30 3.28
355.40 3.276
355.50 3.273
355.60 3.269
355.70 3.266
355.80 3.263
355.90 3.259
356.00 3.256
356.10 3.253
356.20 3.249
356.30 3.246
356.40 3.243
356.50 3.24
356.60 3.236
356.70 3.233
356.80 3.23
356.90 3.226
357.00 3.223
357.10 3.22
357.20 3.217
357.30 3.213
357.40 3.21
357.50 3.207
357.60 3.203
357.70 3.2
357.80 3.197
357.90 3.194
358.00 3.19
358.10 3.187
358.20 3.184
358.30 3.181
358.40 3.177
358.50 3.174
358.60 3.171
358.70 3.168
358.80 3.165
358.90 3.161
359.00 3.158
359.10 3.155
359.20 3.152
359.30 3.149
359.40 3.145
359.50 3.142
359.60 3.139
359.70 3.136
359.80 3.133
359.90 3.129
360.00 3.126
360.10 3.123
360.20 3.12
360.30 3.117
360.40 3.114
360.50 3.111
360.60 3.107
360.70 3.104
360.80 3.101
360.90 3.098
361.00 3.095
361.10 3.092
361.20 3.089
361.30 3.086
361.40 3.082
361.50 3.079
361.60 3.076
361.70 3.073
361.80 3.07
361.90 3.067
362.00 3.064
362.10 3.061
362.20 3.058
362.30 3.055
362.40 3.052
362.50 3.048
362.60 3.045
362.70 3.042
362.80 3.039
362.90 3.036
363.00 3.033
363.10 3.03
363.20 3.027
363.30 3.024
363.40 3.021
363.50 3.018
363.60 3.015
363.70 3.012
363.80 3.009
363.90 3.006
364.00 3.003
364.10 3
364.20 2.997
364.30 2.994
364.40 2.991
364.50 2.988
364.60 2.985
364.70 2.982
364.80 2.979
364.90 2.976
365.00 2.973
365.10 2.97
365.20 2.967
365.30 2.964
365.40 2.961
365.50 2.958
365.60 2.955
365.70 2.952
365.80 2.949
365.90 2.946
366.00 2.944
366.10 2.94
366.20 2.937
366.30 2.934
366.40 2.931
366.50 2.928
366.60 2.925
366.70 2.922
366.80 2.919
366.90 2.916
367.00 2.913
367.10 2.91
367.20 2.907
367.30 2.904
367.40 2.901
367.50 2.898
367.60 2.895
367.70 2.892
367.80 2.889
367.90 2.886
368.00 2.883
368.10 2.88
368.20 2.877
368.30 2.874
368.40 2.871
368.50 2.868
368.60 2.865
368.70 2.862
368.80 2.859
368.90 2.856
369.00 2.853
369.10 2.85
369.20 2.848
369.30 2.845
369.40 2.842
369.50 2.839
369.60 2.836
369.70 2.833
369.80 2.83
369.90 2.827
370.00 2.824
370.10 2.821
370.20 2.818
370.30 2.815
370.40 2.812
370.50 2.809
370.60 2.807
370.70 2.804
370.80 2.801
370.90 2.798
371.00 2.795
371.10 2.792
371.20 2.789
371.30 2.787
371.40 2.784
371.50 2.781
371.60 2.778
371.70 2.775
371.80 2.772
371.90 2.769
372.00 2.767
372.10 2.764
372.20 2.761
372.30 2.758
372.40 2.756
372.50 2.753
372.60 2.75
372.70 2.747
372.80 2.745
372.90 2.742
373.00 2.739
373.10 2.736
373.20 2.734
373.30 2.731
373.40 2.728
373.50 2.725
373.60 2.723
373.70 2.72
373.80 2.717
373.90 2.714
374.00 2.712
374.10 2.709
374.20 2.706
374.30 2.704
374.40 2.701
374.50 2.698
374.60 2.696
374.70 2.693
374.80 2.69
374.90 2.688
375.00 2.685
375.10 2.682
375.20 2.68
375.30 2.677
375.40 2.674
375.50 2.672
375.60 2.669
375.70 2.667
375.80 2.664
375.90 2.661
376.00 2.659
376.10 2.656
376.20 2.654
376.30 2.651
376.40 2.648
376.50 2.646
376.60 2.643
376.70 2.641
376.80 2.638
376.90 2.636
377.00 2.633
377.10 2.631
377.20 2.628
377.30 2.626
377.40 2.624
377.50 2.621
377.60 2.619
377.70 2.616
377.80 2.614
377.90 2.612
378.00 2.609
378.10 2.607
378.20 2.604
378.30 2.602
378.40 2.6
378.50 2.597
378.60 2.595
378.70 2.592
378.80 2.59
378.90 2.588
379.00 2.585
379.10 2.583
379.20 2.581
379.30 2.578
379.40 2.576
379.50 2.574
379.60 2.571
379.70 2.569
379.80 2.567
379.90 2.564
380.00 2.562
380.10 2.56
380.20 2.558
380.30 2.556
380.40 2.554
380.50 2.552
380.60 2.55
380.70 2.548
380.80 2.546
380.90 2.544
381.00 2.542
381.10 2.54
381.20 2.537
381.30 2.535
381.40 2.533
381.50 2.531
381.60 2.528
381.70 2.526
381.80 2.524
381.90 2.521
382.00 2.519
382.10 2.516
382.20 2.514
382.30 2.511
382.40 2.508
382.50 2.506
382.60 2.503
382.70 2.5
382.80 2.497
382.90 2.495
383.00 2.492
383.10 2.489
383.20 2.487
383.30 2.484
383.40 2.482
383.50 2.479
383.60 2.478
383.70 2.476
383.80 2.475
383.90 2.473
384.00 2.472
384.10 2.471
384.20 2.47
384.30 2.469
384.40 2.468
384.50 2.467
384.60 2.465
384.70 2.464
384.80 2.463
384.90 2.461
385.00 2.46
385.10 2.458
385.20 2.456
385.30 2.455
385.40 2.453
385.50 2.451
385.60 2.449
385.70 2.447
385.80 2.445
385.90 2.442
386.00 2.44
386.10 2.437
386.20 2.435
386.30 2.432
386.40 2.429
386.50 2.426
386.60 2.423
386.70 2.42
386.80 2.417
386.90 2.413
387.00 2.41
387.10 2.406
387.20 2.403
387.30 2.399
387.40 2.395
387.50 2.391
387.60 2.387
387.70 2.383
387.80 2.379
387.90 2.374
388.00 2.37
388.10 2.366
388.20 2.362
388.30 2.357
388.40 2.353
388.50 2.349
388.60 2.346
388.70 2.343
388.80 2.34
388.90 2.338
389.00 2.337
389.10 2.336
389.20 2.335
389.30 2.336
389.40 2.336
389.50 2.337
389.60 2.338
389.70 2.339
389.80 2.34
389.90 2.341
390.00 2.341
390.10 2.342
390.20 2.343
390.30 2.344
390.40 2.344
390.50 2.345
390.60 2.345
390.70 2.345
390.80 2.346
390.90 2.346
391.00 2.346
391.10 2.345
391.20 2.345
391.30 2.345
391.40 2.344
391.50 2.343
391.60 2.343
391.70 2.342
391.80 2.34
391.90 2.339
392.00 2.338
392.10 2.336
392.20 2.335
392.30 2.333
392.40 2.331
392.50 2.329
392.60 2.327
392.70 2.324
392.80 2.322
392.90 2.319
393.00 2.317
393.10 2.314
393.20 2.311
393.30 2.307
393.40 2.304
393.50 2.3
393.60 2.297
393.70 2.293
393.80 2.289
393.90 2.284
394.00 2.28
394.10 2.275
394.20 2.271
394.30 2.266
394.40 2.261
394.50 2.255
394.60 2.25
394.70 2.244
394.80 2.238
394.90 2.232
395.00 2.226
395.10 2.219
395.20 2.213
395.30 2.206
395.40 2.199
395.50 2.192
395.60 2.184
395.70 2.177
395.80 2.169
395.90 2.161
396.00 2.154
396.10 2.145
396.20 2.137
396.30 2.129
396.40 2.121
396.50 2.113
396.60 2.105
396.70 2.097
396.80 2.089
396.90 2.082
397.00 2.075
397.10 2.078
397.20 2.082
397.30 2.086
397.40 2.091
397.50 2.095
397.60 2.1
397.70 2.105
397.80 2.11
397.90 2.115
398.00 2.119
398.10 2.124
398.20 2.129
398.30 2.133
398.40 2.137
398.50 2.141
398.60 2.145
398.70 2.149
398.80 2.152
398.90 2.156
399.00 2.159
399.10 2.162
399.20 2.165
399.30 2.167
399.40 2.17
399.50 2.172
399.60 2.174
399.70 2.176
399.80 2.178
399.90 2.18
400.00 2.181
400.10 2.183
400.20 2.184
400.30 2.185
400.40 2.186
400.50 2.187
400.60 2.188
400.70 2.188
400.80 2.189
400.90 2.189
401.00 2.189
401.10 2.189
401.20 2.189
401.30 2.189
401.40 2.189
401.50 2.189
401.60 2.188
401.70 2.188
401.80 2.187
401.90 2.186
402.00 2.186
402.10 2.185
402.20 2.184
402.30 2.183
402.40 2.181
402.50 2.18
402.60 2.179
402.70 2.177
402.80 2.176
402.90 2.174
403.00 2.173
403.10 2.171
403.20 2.169
403.30 2.167
403.40 2.165
403.50 2.163
403.60 2.161
403.70 2.159
403.80 2.157
403.90 2.154
404.00 2.152
404.10 2.149
404.20 2.146
404.30 2.144
404.40 2.141
404.50 2.138
404.60 2.135
404.70 2.132
404.80 2.129
404.90 2.125
405.00 2.122
405.10 2.118
405.20 2.115
405.30 2.111
405.40 2.107
405.50 2.103
405.60 2.099
405.70 2.095
405.80 2.091
405.90 2.086
406.00 2.082
406.10 2.077
406.20 2.072
406.30 2.067
406.40 2.062
406.50 2.056
406.60 2.051
406.70 2.045
406.80 2.039
406.90 2.033
407.00 2.027
407.10 2.02
407.20 2.014
407.30 2.007
407.40 2
407.50 1.992
407.60 1.985
407.70 1.977
407.80 1.969
407.90 1.961
408.00 1.952
408.10 1.943
408.20 1.934
408.30 1.925
408.40 1.915
408.50 1.905
408.60 1.895
408.70 1.885
408.80 1.874
408.90 1.863
409.00 1.851
409.10 1.84
409.20 1.828
409.30 1.816
409.40 1.804
409.50 1.792
409.60 1.78
409.70 1.768
409.80 1.757
409.90 1.746
410.00 1.74
410.10 1.738
410.20 1.74
410.30 1.736
410.40 1.737
410.50 1.742
410.60 1.75
410.70 1.759
410.80 1.768
410.90 1.777
411.00 1.786
411.10 1.795
411.20 1.804
411.30 1.812
411.40 1.82
411.50 1.828
411.60 1.836
411.70 1.843
411.80 1.85
411.90 1.857
412.00 1.863
412.10 1.869
412.20 1.875
412.30 1.881
412.40 1.886
412.50 1.891
412.60 1.896
412.70 1.9
412.80 1.904
412.90 1.908
413.00 1.912
413.10 1.915
413.20 1.919
413.30 1.922
413.40 1.925
413.50 1.928
413.60 1.93
413.70 1.932
413.80 1.935
413.90 1.937
414.00 1.938
414.10 1.94
414.20 1.942
414.30 1.943
414.40 1.945
414.50 1.946
414.60 1.947
414.70 1.948
414.80 1.948
414.90 1.949
415.00 1.95
415.10 1.95
415.20 1.951
415.30 1.951
415.40 1.951
415.50 1.952
415.60 1.952
415.70 1.952
415.80 1.952
415.90 1.951
416.00 1.951
416.10 1.951
416.20 1.951
416.30 1.95
416.40 1.95
416.50 1.949
416.60 1.949
416.70 1.948
416.80 1.948
416.90 1.947
417.00 1.946
417.10 1.946
417.20 1.945
417.30 1.944
417.40 1.943
417.50 1.942
417.60 1.941
417.70 1.94
417.80 1.939
417.90 1.938
418.00 1.937
418.10 1.936
418.20 1.935
418.30 1.934
418.40 1.933
418.50 1.932
418.60 1.93
418.70 1.929
418.80 1.928
418.90 1.927
419.00 1.925
419.10 1.924
419.20 1.923
419.30 1.921
419.40 1.92
419.50 1.919
419.60 1.917
419.70 1.916
419.80 1.915
419.90 1.913
420.00 1.912
420.10 1.91
420.20 1.909
420.30 1.907
420.40 1.906
420.50 1.904
420.60 1.903
420.70 1.901
420.80 1.9
420.90 1.898
421.00 1.897
421.10 1.895
421.20 1.894
421.30 1.892
421.40 1.89
421.50 1.889
421.60 1.887
421.70 1.886
421.80 1.884
421.90 1.882
422.00 1.881
422.10 1.879
422.20 1.877
422.30 1.876
422.40 1.874
422.50 1.872
422.60 1.871
422.70 1.869
422.80 1.867
422.90 1.865
423.00 1.864
423.10 1.862
423.20 1.86
423.30 1.858
423.40 1.857
423.50 1.855
423.60 1.853
423.70 1.851
423.80 1.849
423.90 1.848
424.00 1.846
424.10 1.844
424.20 1.842
424.30 1.84
424.40 1.838
424.50 1.836
424.60 1.834
424.70 1.832
424.80 1.83
424.90 1.828
425.00 1.826
425.10 1.825
425.20 1.822
425.30 1.82
425.40 1.818
425.50 1.816
425.60 1.814
425.70 1.812
425.80 1.81
425.90 1.808
426.00 1.806
426.10 1.804
426.20 1.801
426.30 1.799
426.40 1.797
426.50 1.795
426.60 1.792
426.70 1.79
426.80 1.787
426.90 1.785
427.00 1.783
427.10 1.78
427.20 1.778
427.30 1.775
427.40 1.772
427.50 1.77
427.60 1.767
427.70 1.764
427.80 1.762
427.90 1.759
428.00 1.756
428.10 1.753
428.20 1.75
428.30 1.747
428.40 1.744
428.50 1.741
428.60 1.737
428.70 1.734
428.80 1.731
428.90 1.727
429.00 1.724
429.10 1.72
429.20 1.716
429.30 1.712
429.40 1.708
429.50 1.704
429.60 1.7
429.70 1.696
429.80 1.692
429.90 1.687
430.00 1.683
430.10 1.678
430.20 1.673
430.30 1.668
430.40 1.663
430.50 1.657
430.60 1.652
430.70 1.646
430.80 1.64
430.90 1.634
431.00 1.628
431.10 1.621
431.20 1.615
431.30 1.608
431.40 1.601
431.50 1.593
431.60 1.586
431.70 1.578
431.80 1.57
431.90 1.561
432.00 1.553
432.10 1.544
432.20 1.534
432.30 1.525
432.40 1.515
432.50 1.505
432.60 1.494
432.70 1.484
432.80 1.472
432.90 1.461
433.00 1.449
433.10 1.437
433.20 1.425
433.30 1.413
433.40 1.4
433.50 1.388
433.60 1.376
433.70 1.364
433.80 1.352
433.90 1.341
434.00 1.328
434.10 1.328
434.20 1.338
434.30 1.348
434.40 1.357
434.50 1.367
434.60 1.377
434.70 1.387
434.80 1.397
434.90 1.407
435.00 1.417
435.10 1.426
435.20 1.436
435.30 1.444
435.40 1.453
435.50 1.461
435.60 1.469
435.70 1.477
435.80 1.484
435.90 1.49
436.00 1.497
436.10 1.503
436.20 1.509
436.30 1.515
436.40 1.52
436.50 1.525
436.60 1.53
436.70 1.534
436.80 1.539
436.90 1.543
437.00 1.546
437.10 1.55
437.20 1.553
437.30 1.556
437.40 1.559
437.50 1.562
437.60 1.565
437.70 1.567
437.80 1.569
437.90 1.571
438.00 1.573
438.10 1.575
438.20 1.577
438.30 1.578
438.40 1.579
438.50 1.581
438.60 1.582
438.70 1.583
438.80 1.584
438.90 1.585
439.00 1.585
439.10 1.586
439.20 1.587
439.30 1.587
439.40 1.587
439.50 1.588
439.60 1.588
439.70 1.588
439.80 1.588
439.90 1.588
440.00 1.588
440.10 1.588
440.20 1.588
440.30 1.588
440.40 1.588
440.50 1.588
440.60 1.587
440.70 1.587
440.80 1.586
440.90 1.586
441.00 1.586
441.10 1.585
441.20 1.585
441.30 1.584
441.40 1.583
441.50 1.583
441.60 1.582
441.70 1.581
441.80 1.581
441.90 1.58
442.00 1.579
442.10 1.578
442.20 1.578
442.30 1.577
442.40 1.576
442.50 1.575
442.60 1.574
442.70 1.573
442.80 1.573
442.90 1.572
443.00 1.571
443.10 1.57
443.20 1.569
443.30 1.568
443.40 1.567
443.50 1.566
443.60 1.565
443.70 1.564
443.80 1.563
443.90 1.562
444.00 1.561
444.10 1.56
444.20 1.559
444.30 1.558
444.40 1.557
444.50 1.556
444.60 1.554
444.70 1.553
444.80 1.552
444.90 1.551
445.00 1.55
445.10 1.549
445.20 1.548
445.30 1.547
445.40 1.546
445.50 1.544
445.60 1.543
445.70 1.542
445.80 1.541
445.90 1.54
446.00 1.539
446.10 1.538
446.20 1.536
446.30 1.535
446.40 1.534
446.50 1.533
446.60 1.532
446.70 1.531
446.80 1.53
446.90 1.528
447.00 1.527
447.10 1.526
447.20 1.525
447.30 1.524
447.40 1.522
447.50 1.521
447.60 1.52
447.70 1.519
447.80 1.518
447.90 1.517
448.00 1.515
448.10 1.514
448.20 1.513
448.30 1.512
448.40 1.511
448.50 1.509
448.60 1.508
448.70 1.507
448.80 1.506
448.90 1.505
449.00 1.503
449.10 1.502
449.20 1.501
449.30 1.5
449.40 1.499
449.50 1.497
449.60 1.496
449.70 1.495
449.80 1.494
449.90 1.493
450.00 1.491
450.10 1.49
450.20 1.489
450.30 1.488
450.40 1.487
450.50 1.485
450.60 1.484
450.70 1.483
450.80 1.482
450.90 1.481
451.00 1.479
451.10 1.478
451.20 1.477
451.30 1.476
451.40 1.475
451.50 1.473
451.60 1.472
451.70 1.471
451.80 1.47
451.90 1.469
452.00 1.468
452.10 1.466
452.20 1.465
452.30 1.464
452.40 1.463
452.50 1.462
452.60 1.46
452.70 1.459
452.80 1.458
452.90 1.457
453.00 1.456
453.10 1.454
453.20 1.453
453.30 1.452
453.40 1.451
453.50 1.45
453.60 1.448
453.70 1.447
453.80 1.446
453.90 1.445
454.00 1.444
454.10 1.443
454.20 1.441
