# Version 2.1 - nm, norm@500 to 1, cut digits, bergeron_12500_65.dat_12500
# Wavelength(nm)  Flambda(ergs/cm^s/s/nm)
300.00 1.568
300.10 1.567
300.20 1.566
300.30 1.565
300.40 1.564
300.50 1.563
300.60 1.562
300.70 1.561
300.80 1.56
300.90 1.559
301.00 1.558
301.10 1.557
301.20 1.556
301.30 1.555
301.40 1.554
301.50 1.553
301.60 1.552
301.70 1.551
301.80 1.55
301.90 1.549
302.00 1.548
302.10 1.547
302.20 1.546
302.30 1.545
302.40 1.544
302.50 1.543
302.60 1.543
302.70 1.542
302.80 1.541
302.90 1.54
303.00 1.539
303.10 1.538
303.20 1.537
303.30 1.536
303.40 1.535
303.50 1.534
303.60 1.533
303.70 1.532
303.80 1.531
303.90 1.53
304.00 1.529
304.10 1.528
304.20 1.527
304.30 1.526
304.40 1.526
304.50 1.525
304.60 1.524
304.70 1.523
304.80 1.522
304.90 1.521
305.00 1.52
305.10 1.519
305.20 1.518
305.30 1.517
305.40 1.516
305.50 1.515
305.60 1.514
305.70 1.513
305.80 1.512
305.90 1.512
306.00 1.511
306.10 1.51
306.20 1.509
306.30 1.508
306.40 1.507
306.50 1.506
306.60 1.505
306.70 1.504
306.80 1.503
306.90 1.502
307.00 1.501
307.10 1.501
307.20 1.5
307.30 1.499
307.40 1.498
307.50 1.497
307.60 1.496
307.70 1.495
307.80 1.494
307.90 1.493
308.00 1.492
308.10 1.491
308.20 1.49
308.30 1.49
308.40 1.489
308.50 1.488
308.60 1.487
308.70 1.486
308.80 1.485
308.90 1.484
309.00 1.483
309.10 1.482
309.20 1.481
309.30 1.481
309.40 1.48
309.50 1.479
309.60 1.478
309.70 1.477
309.80 1.476
309.90 1.475
310.00 1.474
310.10 1.473
310.20 1.473
310.30 1.472
310.40 1.471
310.50 1.47
310.60 1.469
310.70 1.468
310.80 1.467
310.90 1.466
311.00 1.465
311.10 1.465
311.20 1.464
311.30 1.463
311.40 1.462
311.50 1.461
311.60 1.46
311.70 1.459
311.80 1.458
311.90 1.457
312.00 1.457
312.10 1.456
312.20 1.455
312.30 1.454
312.40 1.453
312.50 1.452
312.60 1.451
312.70 1.45
312.80 1.45
312.90 1.449
313.00 1.448
313.10 1.447
313.20 1.446
313.30 1.445
313.40 1.444
313.50 1.444
313.60 1.443
313.70 1.442
313.80 1.441
313.90 1.44
314.00 1.439
314.10 1.438
314.20 1.437
314.30 1.437
314.40 1.436
314.50 1.435
314.60 1.434
314.70 1.433
314.80 1.432
314.90 1.431
315.00 1.431
315.10 1.43
315.20 1.429
315.30 1.428
315.40 1.427
315.50 1.426
315.60 1.425
315.70 1.425
315.80 1.424
315.90 1.423
316.00 1.422
316.10 1.421
316.20 1.42
316.30 1.42
316.40 1.419
316.50 1.418
316.60 1.417
316.70 1.416
316.80 1.415
316.90 1.414
317.00 1.414
317.10 1.413
317.20 1.412
317.30 1.411
317.40 1.41
317.50 1.409
317.60 1.409
317.70 1.408
317.80 1.407
317.90 1.406
318.00 1.405
318.10 1.404
318.20 1.404
318.30 1.403
318.40 1.402
318.50 1.401
318.60 1.4
318.70 1.399
318.80 1.399
318.90 1.398
319.00 1.397
319.10 1.396
319.20 1.395
319.30 1.394
319.40 1.394
319.50 1.393
319.60 1.392
319.70 1.391
319.80 1.39
319.90 1.39
320.00 1.389
320.10 1.388
320.20 1.387
320.30 1.386
320.40 1.385
320.50 1.385
320.60 1.384
320.70 1.383
320.80 1.382
320.90 1.381
321.00 1.381
321.10 1.38
321.20 1.379
321.30 1.378
321.40 1.377
321.50 1.376
321.60 1.376
321.70 1.375
321.80 1.374
321.90 1.373
322.00 1.372
322.10 1.372
322.20 1.371
322.30 1.37
322.40 1.369
322.50 1.368
322.60 1.368
322.70 1.367
322.80 1.366
322.90 1.365
323.00 1.364
323.10 1.364
323.20 1.363
323.30 1.362
323.40 1.361
323.50 1.36
323.60 1.36
323.70 1.359
323.80 1.358
323.90 1.357
324.00 1.356
324.10 1.356
324.20 1.355
324.30 1.354
324.40 1.353
324.50 1.352
324.60 1.352
324.70 1.351
324.80 1.35
324.90 1.349
325.00 1.348
325.10 1.348
325.20 1.347
325.30 1.346
325.40 1.345
325.50 1.345
325.60 1.344
325.70 1.343
325.80 1.342
325.90 1.341
326.00 1.341
326.10 1.34
326.20 1.339
326.30 1.338
326.40 1.338
326.50 1.337
326.60 1.336
326.70 1.335
326.80 1.334
326.90 1.334
327.00 1.333
327.10 1.332
327.20 1.331
327.30 1.331
327.40 1.33
327.50 1.329
327.60 1.328
327.70 1.327
327.80 1.327
327.90 1.326
328.00 1.325
328.10 1.324
328.20 1.324
328.30 1.323
328.40 1.322
328.50 1.321
328.60 1.32
328.70 1.32
328.80 1.319
328.90 1.318
329.00 1.317
329.10 1.317
329.20 1.316
329.30 1.315
329.40 1.314
329.50 1.314
329.60 1.313
329.70 1.312
329.80 1.311
329.90 1.311
330.00 1.31
330.10 1.309
330.20 1.308
330.30 1.308
330.40 1.307
330.50 1.306
330.60 1.305
330.70 1.305
330.80 1.304
330.90 1.303
331.00 1.302
331.10 1.302
331.20 1.301
331.30 1.3
331.40 1.299
331.50 1.299
331.60 1.298
331.70 1.297
331.80 1.296
331.90 1.296
332.00 1.295
332.10 1.294
332.20 1.293
332.30 1.293
332.40 1.292
332.50 1.291
332.60 1.29
332.70 1.29
332.80 1.289
332.90 1.288
333.00 1.287
333.10 1.287
333.20 1.286
333.30 1.285
333.40 1.284
333.50 1.284
333.60 1.283
333.70 1.282
333.80 1.281
333.90 1.281
334.00 1.28
334.10 1.279
334.20 1.279
334.30 1.278
334.40 1.277
334.50 1.276
334.60 1.276
334.70 1.275
334.80 1.274
334.90 1.273
335.00 1.273
335.10 1.272
335.20 1.271
335.30 1.27
335.40 1.27
335.50 1.269
335.60 1.268
335.70 1.268
335.80 1.267
335.90 1.266
336.00 1.265
336.10 1.265
336.20 1.264
336.30 1.263
336.40 1.263
336.50 1.262
336.60 1.261
336.70 1.26
336.80 1.26
336.90 1.259
337.00 1.258
337.10 1.258
337.20 1.257
337.30 1.256
337.40 1.255
337.50 1.255
337.60 1.254
337.70 1.253
337.80 1.253
337.90 1.252
338.00 1.251
338.10 1.25
338.20 1.25
338.30 1.249
338.40 1.248
338.50 1.248
338.60 1.247
338.70 1.246
338.80 1.245
338.90 1.245
339.00 1.244
339.10 1.243
339.20 1.243
339.30 1.242
339.40 1.241
339.50 1.24
339.60 1.24
339.70 1.239
339.80 1.238
339.90 1.238
340.00 1.237
340.10 1.236
340.20 1.236
340.30 1.235
340.40 1.234
340.50 1.233
340.60 1.233
340.70 1.232
340.80 1.231
340.90 1.231
341.00 1.23
341.10 1.229
341.20 1.229
341.30 1.228
341.40 1.227
341.50 1.226
341.60 1.226
341.70 1.225
341.80 1.224
341.90 1.224
342.00 1.223
342.10 1.222
342.20 1.222
342.30 1.221
342.40 1.22
342.50 1.22
342.60 1.219
342.70 1.218
342.80 1.218
342.90 1.217
343.00 1.216
343.10 1.215
343.20 1.215
343.30 1.214
343.40 1.213
343.50 1.213
343.60 1.212
343.70 1.211
343.80 1.211
343.90 1.21
344.00 1.209
344.10 1.209
344.20 1.208
344.30 1.207
344.40 1.207
344.50 1.206
344.60 1.205
344.70 1.205
344.80 1.204
344.90 1.203
345.00 1.203
345.10 1.202
345.20 1.201
345.30 1.201
345.40 1.2
345.50 1.199
345.60 1.198
345.70 1.198
345.80 1.197
345.90 1.196
346.00 1.196
346.10 1.195
346.20 1.194
346.30 1.194
346.40 1.193
346.50 1.192
346.60 1.192
346.70 1.191
346.80 1.19
346.90 1.19
347.00 1.189
347.10 1.188
347.20 1.188
347.30 1.187
347.40 1.186
347.50 1.186
347.60 1.185
347.70 1.184
347.80 1.184
347.90 1.183
348.00 1.183
348.10 1.182
348.20 1.181
348.30 1.181
348.40 1.18
348.50 1.179
348.60 1.179
348.70 1.178
348.80 1.177
348.90 1.177
349.00 1.176
349.10 1.175
349.20 1.175
349.30 1.174
349.40 1.173
349.50 1.173
349.60 1.172
349.70 1.171
349.80 1.171
349.90 1.17
350.00 1.169
350.10 1.169
350.20 1.168
350.30 1.167
350.40 1.167
350.50 1.166
350.60 1.165
350.70 1.165
350.80 1.164
350.90 1.164
351.00 1.163
351.10 1.162
351.20 1.162
351.30 1.161
351.40 1.16
351.50 1.16
351.60 1.159
351.70 1.158
351.80 1.158
351.90 1.157
352.00 1.156
352.10 1.156
352.20 1.155
352.30 1.155
352.40 1.154
352.50 1.153
352.60 1.153
352.70 1.152
352.80 1.151
352.90 1.151
353.00 1.15
353.10 1.149
353.20 1.149
353.30 1.148
353.40 1.148
353.50 1.147
353.60 1.146
353.70 1.146
353.80 1.145
353.90 1.144
354.00 1.144
354.10 1.143
354.20 1.142
354.30 1.142
354.40 1.141
354.50 1.141
354.60 1.14
354.70 1.139
354.80 1.139
354.90 1.138
355.00 1.137
355.10 1.137
355.20 1.136
355.30 1.136
355.40 1.135
355.50 1.134
355.60 1.134
355.70 1.133
355.80 1.132
355.90 1.132
356.00 1.131
356.10 1.131
356.20 1.13
356.30 1.129
356.40 1.129
356.50 1.128
356.60 1.127
356.70 1.127
356.80 1.126
356.90 1.126
357.00 1.125
357.10 1.124
357.20 1.124
357.30 1.123
357.40 1.122
357.50 1.122
357.60 1.121
357.70 1.121
357.80 1.12
357.90 1.119
358.00 1.119
358.10 1.118
358.20 1.118
358.30 1.117
358.40 1.116
358.50 1.116
358.60 1.115
358.70 1.115
358.80 1.114
358.90 1.113
359.00 1.113
359.10 1.112
359.20 1.111
359.30 1.111
359.40 1.11
359.50 1.11
359.60 1.109
359.70 1.108
359.80 1.108
359.90 1.107
360.00 1.107
360.10 1.106
360.20 1.105
360.30 1.105
360.40 1.104
360.50 1.104
360.60 1.103
360.70 1.102
360.80 1.102
360.90 1.101
361.00 1.101
361.10 1.1
361.20 1.099
361.30 1.099
361.40 1.098
361.50 1.098
361.60 1.097
361.70 1.096
361.80 1.096
361.90 1.095
362.00 1.095
362.10 1.094
362.20 1.093
362.30 1.093
362.40 1.092
362.50 1.092
362.60 1.091
362.70 1.09
362.80 1.09
362.90 1.089
363.00 1.089
363.10 1.088
363.20 1.087
363.30 1.087
363.40 1.086
363.50 1.086
363.60 1.085
363.70 1.084
363.80 1.084
363.90 1.083
364.00 1.083
364.10 1.082
364.20 1.081
364.30 1.081
364.40 1.08
364.50 1.08
364.60 1.079
364.70 1.079
364.80 1.078
364.90 1.078
365.00 1.077
365.10 1.076
365.20 1.076
365.30 1.075
365.40 1.075
365.50 1.074
365.60 1.074
365.70 1.073
365.80 1.073
365.90 1.072
366.00 1.072
366.10 1.072
366.20 1.071
366.30 1.071
366.40 1.07
366.50 1.07
366.60 1.069
366.70 1.069
366.80 1.068
366.90 1.068
367.00 1.068
367.10 1.067
367.20 1.067
367.30 1.066
367.40 1.066
367.50 1.065
367.60 1.065
367.70 1.065
367.80 1.064
367.90 1.064
368.00 1.063
368.10 1.064
368.20 1.066
368.30 1.067
368.40 1.068
368.50 1.069
368.60 1.07
368.70 1.071
368.80 1.072
368.90 1.073
369.00 1.075
369.10 1.076
369.20 1.077
369.30 1.078
369.40 1.079
369.50 1.08
369.60 1.081
369.70 1.082
369.80 1.084
369.90 1.085
370.00 1.086
370.10 1.089
370.20 1.093
370.30 1.097
370.40 1.1
370.50 1.104
370.60 1.108
370.70 1.111
370.80 1.115
370.90 1.118
371.00 1.122
371.10 1.126
371.20 1.129
371.30 1.133
371.40 1.136
371.50 1.14
371.60 1.144
371.70 1.147
371.80 1.151
371.90 1.154
372.00 1.158
372.10 1.163
372.20 1.169
372.30 1.174
372.40 1.179
372.50 1.185
372.60 1.19
372.70 1.196
372.80 1.201
372.90 1.206
373.00 1.212
373.10 1.217
373.20 1.223
373.30 1.228
373.40 1.233
373.50 1.239
373.60 1.244
373.70 1.249
373.80 1.255
373.90 1.26
374.00 1.265
374.10 1.271
374.20 1.276
374.30 1.281
374.40 1.287
374.50 1.292
374.60 1.298
374.70 1.303
374.80 1.308
374.90 1.314
375.00 1.319
375.10 1.324
375.20 1.33
375.30 1.335
375.40 1.34
375.50 1.346
375.60 1.351
375.70 1.356
375.80 1.362
375.90 1.367
376.00 1.372
376.10 1.375
376.20 1.377
376.30 1.38
376.40 1.382
376.50 1.385
376.60 1.387
376.70 1.39
376.80 1.392
376.90 1.395
377.00 1.397
377.10 1.392
377.20 1.387
377.30 1.382
377.40 1.377
377.50 1.372
377.60 1.367
377.70 1.362
377.80 1.357
377.90 1.352
378.00 1.347
378.10 1.321
378.20 1.295
378.30 1.268
378.40 1.242
378.50 1.216
378.60 1.19
378.70 1.165
378.80 1.139
378.90 1.113
379.00 1.087
379.10 1.064
379.20 1.041
379.30 1.018
379.40 0.9951
379.50 0.9722
379.60 0.9494
379.70 0.9266
379.80 0.9038
379.90 0.881
380.00 0.8582
380.10 0.8938
380.20 0.9292
380.30 0.9647
380.40 1
380.50 1.035
380.60 1.071
380.70 1.106
380.80 1.141
380.90 1.177
381.00 1.212
381.10 1.227
381.20 1.242
381.30 1.257
381.40 1.272
381.50 1.286
381.60 1.289
381.70 1.287
381.80 1.281
381.90 1.271
382.00 1.257
382.10 1.239
382.20 1.216
382.30 1.177
382.40 1.137
382.50 1.098
382.60 1.059
382.70 1.02
382.80 0.9815
382.90 0.9426
383.00 0.9038
383.10 0.865
383.20 0.8262
383.30 0.7808
383.40 0.7325
383.50 0.6775
383.60 0.6906
383.70 0.7427
383.80 0.7901
383.90 0.8348
384.00 0.8785
384.10 0.9223
384.20 0.9659
384.30 1.009
384.40 1.053
384.50 1.096
384.60 1.138
384.70 1.177
384.80 1.214
384.90 1.247
385.00 1.278
385.10 1.304
385.20 1.328
385.30 1.35
385.40 1.368
385.50 1.384
385.60 1.397
385.70 1.408
385.80 1.416
385.90 1.423
386.00 1.427
386.10 1.429
386.20 1.429
386.30 1.426
386.40 1.421
386.50 1.415
386.60 1.406
386.70 1.395
386.80 1.382
386.90 1.366
387.00 1.348
387.10 1.328
387.20 1.305
387.30 1.28
387.40 1.252
387.50 1.221
387.60 1.187
387.70 1.151
387.80 1.111
387.90 1.069
388.00 1.025
388.10 0.9798
388.20 0.9343
388.30 0.8888
388.40 0.8437
388.50 0.7986
388.60 0.7533
388.70 0.7047
388.80 0.6483
388.90 0.5841
389.00 0.6445
389.10 0.6989
389.20 0.7474
389.30 0.7923
389.40 0.8369
389.50 0.8813
389.60 0.9263
389.70 0.9713
389.80 1.017
389.90 1.061
390.00 1.103
390.10 1.144
390.20 1.182
390.30 1.218
390.40 1.252
390.50 1.282
390.60 1.311
390.70 1.339
390.80 1.364
390.90 1.388
391.00 1.41
391.10 1.431
391.20 1.45
391.30 1.469
391.40 1.485
391.50 1.501
391.60 1.516
391.70 1.529
391.80 1.541
391.90 1.552
392.00 1.562
392.10 1.571
392.20 1.579
392.30 1.585
392.40 1.59
392.50 1.595
392.60 1.598
392.70 1.6
392.80 1.602
392.90 1.601
393.00 1.6
393.10 1.598
393.20 1.595
393.30 1.59
393.40 1.585
393.50 1.578
393.60 1.57
393.70 1.561
393.80 1.551
393.90 1.54
394.00 1.528
394.10 1.514
394.20 1.499
394.30 1.483
394.40 1.466
394.50 1.447
394.60 1.428
394.70 1.407
394.80 1.385
394.90 1.362
395.00 1.338
395.10 1.312
395.20 1.285
395.30 1.257
395.40 1.227
395.50 1.196
395.60 1.162
395.70 1.128
395.80 1.092
395.90 1.053
396.00 1.013
396.10 0.9724
396.20 0.9298
396.30 0.8868
396.40 0.8433
396.50 0.8001
396.60 0.7569
396.70 0.7138
396.80 0.6662
396.90 0.6012
397.00 0.5189
397.10 0.5959
397.20 0.6584
397.30 0.7065
397.40 0.7491
397.50 0.7916
397.60 0.834
397.70 0.8767
397.80 0.9189
397.90 0.9606
398.00 1.001
398.10 1.04
398.20 1.078
398.30 1.113
398.40 1.147
398.50 1.18
398.60 1.21
398.70 1.24
398.80 1.268
398.90 1.295
399.00 1.32
399.10 1.345
399.20 1.368
399.30 1.391
399.40 1.412
399.50 1.433
399.60 1.453
399.70 1.472
399.80 1.49
399.90 1.507
400.00 1.523
400.10 1.538
400.20 1.553
400.30 1.567
400.40 1.58
400.50 1.593
400.60 1.605
400.70 1.616
400.80 1.626
400.90 1.636
401.00 1.645
401.10 1.654
401.20 1.662
401.30 1.669
401.40 1.676
401.50 1.683
401.60 1.688
401.70 1.694
401.80 1.699
401.90 1.703
402.00 1.708
402.10 1.712
402.20 1.715
402.30 1.718
402.40 1.721
402.50 1.723
402.60 1.725
402.70 1.726
402.80 1.728
402.90 1.729
403.00 1.729
403.10 1.73
403.20 1.73
403.30 1.729
403.40 1.729
403.50 1.728
403.60 1.727
403.70 1.725
403.80 1.724
403.90 1.722
404.00 1.72
404.10 1.717
404.20 1.714
404.30 1.711
404.40 1.708
404.50 1.704
404.60 1.7
404.70 1.695
404.80 1.691
404.90 1.685
405.00 1.68
405.10 1.674
405.20 1.668
405.30 1.661
405.40 1.654
405.50 1.647
405.60 1.639
405.70 1.631
405.80 1.622
405.90 1.612
406.00 1.603
406.10 1.592
406.20 1.581
406.30 1.57
406.40 1.558
406.50 1.546
406.60 1.533
406.70 1.519
406.80 1.504
406.90 1.489
407.00 1.473
407.10 1.456
407.20 1.439
407.30 1.42
407.40 1.401
407.50 1.381
407.60 1.36
407.70 1.338
407.80 1.316
407.90 1.293
408.00 1.269
408.10 1.244
408.20 1.219
408.30 1.193
408.40 1.166
408.50 1.139
408.60 1.111
408.70 1.082
408.80 1.052
408.90 1.021
409.00 0.9893
409.10 0.956
409.20 0.9218
409.30 0.8869
409.40 0.8502
409.50 0.8128
409.60 0.7748
409.70 0.7365
409.80 0.698
409.90 0.6592
410.00 0.6117
410.10 0.5535
410.20 0.4847
410.30 0.5721
410.40 0.637
410.50 0.6793
410.60 0.7169
410.70 0.7545
410.80 0.7921
410.90 0.8289
411.00 0.8648
411.10 0.8999
411.20 0.9331
411.30 0.9655
411.40 0.997
411.50 1.027
411.60 1.056
411.70 1.084
411.80 1.111
411.90 1.137
412.00 1.162
412.10 1.187
412.20 1.211
412.30 1.234
412.40 1.257
412.50 1.278
412.60 1.3
412.70 1.32
412.80 1.339
412.90 1.358
413.00 1.376
413.10 1.393
413.20 1.409
413.30 1.424
413.40 1.439
413.50 1.453
413.60 1.466
413.70 1.478
413.80 1.49
413.90 1.502
414.00 1.512
414.10 1.523
414.20 1.532
414.30 1.541
414.40 1.55
414.50 1.558
414.60 1.566
414.70 1.573
414.80 1.58
414.90 1.587
415.00 1.593
415.10 1.599
415.20 1.604
415.30 1.609
415.40 1.614
415.50 1.619
415.60 1.623
415.70 1.627
415.80 1.631
415.90 1.635
416.00 1.638
416.10 1.641
416.20 1.644
416.30 1.647
416.40 1.65
416.50 1.652
416.60 1.654
416.70 1.656
416.80 1.658
416.90 1.66
417.00 1.662
417.10 1.664
417.20 1.665
417.30 1.666
417.40 1.668
417.50 1.669
417.60 1.67
417.70 1.671
417.80 1.671
417.90 1.672
418.00 1.673
418.10 1.673
418.20 1.674
418.30 1.674
418.40 1.675
418.50 1.675
418.60 1.675
418.70 1.675
418.80 1.675
418.90 1.676
419.00 1.675
419.10 1.675
419.20 1.675
419.30 1.675
419.40 1.675
419.50 1.675
419.60 1.674
419.70 1.674
419.80 1.674
419.90 1.673
420.00 1.673
420.10 1.672
420.20 1.672
420.30 1.671
420.40 1.67
420.50 1.67
420.60 1.669
420.70 1.668
420.80 1.668
420.90 1.667
421.00 1.666
421.10 1.665
421.20 1.664
421.30 1.663
421.40 1.662
421.50 1.661
421.60 1.66
421.70 1.659
421.80 1.658
421.90 1.657
422.00 1.656
422.10 1.655
422.20 1.654
422.30 1.653
422.40 1.652
422.50 1.65
422.60 1.649
422.70 1.648
422.80 1.646
422.90 1.645
423.00 1.644
423.10 1.642
423.20 1.641
423.30 1.639
423.40 1.638
423.50 1.636
423.60 1.635
423.70 1.633
423.80 1.631
423.90 1.63
424.00 1.628
424.10 1.626
424.20 1.624
424.30 1.623
424.40 1.621
424.50 1.619
424.60 1.617
424.70 1.615
424.80 1.613
424.90 1.611
425.00 1.609
425.10 1.606
425.20 1.604
425.30 1.602
425.40 1.6
425.50 1.597
425.60 1.595
425.70 1.592
425.80 1.59
425.90 1.587
426.00 1.584
426.10 1.581
426.20 1.578
426.30 1.575
426.40 1.572
426.50 1.569
426.60 1.565
426.70 1.562
426.80 1.559
426.90 1.555
427.00 1.552
427.10 1.548
427.20 1.544
427.30 1.54
427.40 1.536
427.50 1.532
427.60 1.527
427.70 1.523
427.80 1.518
427.90 1.514
428.00 1.509
428.10 1.503
428.20 1.498
428.30 1.493
428.40 1.487
428.50 1.481
428.60 1.475
428.70 1.469
428.80 1.463
428.90 1.456
429.00 1.449
429.10 1.442
429.20 1.434
429.30 1.427
429.40 1.419
429.50 1.41
429.60 1.402
429.70 1.393
429.80 1.384
429.90 1.374
430.00 1.365
430.10 1.354
430.20 1.344
430.30 1.333
430.40 1.322
430.50 1.31
430.60 1.298
430.70 1.285
430.80 1.273
430.90 1.26
431.00 1.246
431.10 1.232
431.20 1.218
431.30 1.203
431.40 1.188
431.50 1.173
431.60 1.156
431.70 1.139
431.80 1.121
431.90 1.102
432.00 1.082
432.10 1.062
432.20 1.04
432.30 1.017
432.40 0.9931
432.50 0.9672
432.60 0.9405
432.70 0.9131
432.80 0.8851
432.90 0.8575
433.00 0.8302
433.10 0.8038
433.20 0.7768
433.30 0.7494
433.40 0.7197
433.50 0.6893
433.60 0.6581
433.70 0.6263
433.80 0.5911
433.90 0.5524
434.00 0.4471
434.10 0.4482
434.20 0.5557
434.30 0.5931
434.40 0.6274
434.50 0.6586
434.60 0.6891
434.70 0.7187
434.80 0.7475
434.90 0.774
435.00 0.8
435.10 0.8255
435.20 0.8517
435.30 0.8782
435.40 0.905
435.50 0.9311
435.60 0.9563
435.70 0.9806
435.80 1.003
435.90 1.024
436.00 1.045
436.10 1.063
436.20 1.081
436.30 1.099
436.40 1.114
436.50 1.13
436.60 1.144
436.70 1.158
436.80 1.171
436.90 1.184
437.00 1.196
437.10 1.208
437.20 1.219
437.30 1.23
437.40 1.241
437.50 1.251
437.60 1.261
437.70 1.271
437.80 1.28
437.90 1.288
438.00 1.296
438.10 1.304
438.20 1.312
438.30 1.319
438.40 1.326
438.50 1.332
438.60 1.339
438.70 1.345
438.80 1.35
438.90 1.356
439.00 1.361
439.10 1.365
439.20 1.37
439.30 1.374
439.40 1.378
439.50 1.382
439.60 1.386
439.70 1.389
439.80 1.393
439.90 1.396
440.00 1.399
440.10 1.401
440.20 1.404
440.30 1.406
440.40 1.409
440.50 1.411
440.60 1.413
440.70 1.415
440.80 1.417
440.90 1.418
441.00 1.42
441.10 1.421
441.20 1.422
441.30 1.424
441.40 1.425
441.50 1.426
441.60 1.427
441.70 1.428
441.80 1.429
441.90 1.429
442.00 1.43
442.10 1.431
442.20 1.431
442.30 1.432
442.40 1.432
442.50 1.432
442.60 1.433
442.70 1.433
442.80 1.433
442.90 1.433
443.00 1.434
443.10 1.434
443.20 1.434
443.30 1.434
443.40 1.434
443.50 1.434
443.60 1.434
443.70 1.433
443.80 1.433
443.90 1.433
444.00 1.433
444.10 1.433
444.20 1.432
444.30 1.432
444.40 1.432
444.50 1.431
444.60 1.431
444.70 1.431
444.80 1.43
444.90 1.43
445.00 1.429
445.10 1.429
445.20 1.428
445.30 1.428
445.40 1.427
445.50 1.427
445.60 1.426
445.70 1.426
445.80 1.425
445.90 1.425
446.00 1.424
446.10 1.423
446.20 1.423
446.30 1.422
446.40 1.422
446.50 1.421
446.60 1.42
446.70 1.42
446.80 1.419
446.90 1.418
447.00 1.418
447.10 1.417
447.20 1.416
447.30 1.415
447.40 1.415
447.50 1.414
447.60 1.413
447.70 1.413
447.80 1.412
447.90 1.411
448.00 1.41
448.10 1.41
448.20 1.409
448.30 1.408
448.40 1.407
448.50 1.406
448.60 1.406
448.70 1.405
448.80 1.404
448.90 1.403
449.00 1.403
449.10 1.402
449.20 1.401
449.30 1.4
449.40 1.399
449.50 1.399
449.60 1.398
449.70 1.397
449.80 1.396
449.90 1.395
450.00 1.395
450.10 1.394
450.20 1.393
450.30 1.392
450.40 1.391
450.50 1.39
450.60 1.39
450.70 1.389
450.80 1.388
450.90 1.387
451.00 1.386
451.10 1.385
451.20 1.385
451.30 1.384
451.40 1.383
451.50 1.382
451.60 1.381
451.70 1.38
451.80 1.379
451.90 1.379
452.00 1.378
452.10 1.377
452.20 1.376
452.30 1.375
452.40 1.374
452.50 1.373
452.60 1.373
452.70 1.372
452.80 1.371
452.90 1.37
453.00 1.369
453.10 1.368
453.20 1.367
