# Version 2.1 - nm, norm@500 to 1, cut digits, bergeron_9000_70.dat_9000
# Wavelength(nm)  Flambda(ergs/cm^s/s/nm)
300.00 1.366
300.10 1.365
300.20 1.365
300.30 1.364
300.40 1.364
300.50 1.364
300.60 1.363
300.70 1.363
300.80 1.363
300.90 1.362
301.00 1.362
301.10 1.361
301.20 1.361
301.30 1.361
301.40 1.36
301.50 1.36
301.60 1.36
301.70 1.359
301.80 1.359
301.90 1.358
302.00 1.358
302.10 1.358
302.20 1.357
302.30 1.357
302.40 1.357
302.50 1.356
302.60 1.356
302.70 1.355
302.80 1.355
302.90 1.355
303.00 1.354
303.10 1.354
303.20 1.354
303.30 1.353
303.40 1.353
303.50 1.352
303.60 1.352
303.70 1.352
303.80 1.351
303.90 1.351
304.00 1.351
304.10 1.35
304.20 1.35
304.30 1.349
304.40 1.349
304.50 1.349
304.60 1.348
304.70 1.348
304.80 1.348
304.90 1.347
305.00 1.347
305.10 1.346
305.20 1.346
305.30 1.346
305.40 1.345
305.50 1.345
305.60 1.344
305.70 1.344
305.80 1.344
305.90 1.343
306.00 1.343
306.10 1.343
306.20 1.342
306.30 1.342
306.40 1.341
306.50 1.341
306.60 1.341
306.70 1.34
306.80 1.34
306.90 1.339
307.00 1.339
307.10 1.339
307.20 1.338
307.30 1.338
307.40 1.338
307.50 1.337
307.60 1.337
307.70 1.336
307.80 1.336
307.90 1.336
308.00 1.335
308.10 1.335
308.20 1.334
308.30 1.334
308.40 1.334
308.50 1.333
308.60 1.333
308.70 1.332
308.80 1.332
308.90 1.332
309.00 1.331
309.10 1.331
309.20 1.331
309.30 1.33
309.40 1.33
309.50 1.329
309.60 1.329
309.70 1.329
309.80 1.328
309.90 1.328
310.00 1.327
310.10 1.327
310.20 1.327
310.30 1.326
310.40 1.326
310.50 1.325
310.60 1.325
310.70 1.325
310.80 1.324
310.90 1.324
311.00 1.323
311.10 1.323
311.20 1.323
311.30 1.322
311.40 1.322
311.50 1.321
311.60 1.321
311.70 1.321
311.80 1.32
311.90 1.32
312.00 1.32
312.10 1.319
312.20 1.319
312.30 1.318
312.40 1.318
312.50 1.318
312.60 1.317
312.70 1.317
312.80 1.316
312.90 1.316
313.00 1.316
313.10 1.315
313.20 1.315
313.30 1.314
313.40 1.314
313.50 1.314
313.60 1.313
313.70 1.313
313.80 1.312
313.90 1.312
314.00 1.312
314.10 1.311
314.20 1.311
314.30 1.31
314.40 1.31
314.50 1.31
314.60 1.309
314.70 1.309
314.80 1.308
314.90 1.308
315.00 1.308
315.10 1.307
315.20 1.307
315.30 1.306
315.40 1.306
315.50 1.306
315.60 1.305
315.70 1.305
315.80 1.304
315.90 1.304
316.00 1.304
316.10 1.303
316.20 1.303
316.30 1.302
316.40 1.302
316.50 1.302
316.60 1.301
316.70 1.301
316.80 1.3
316.90 1.3
317.00 1.3
317.10 1.299
317.20 1.299
317.30 1.298
317.40 1.298
317.50 1.298
317.60 1.297
317.70 1.297
317.80 1.296
317.90 1.296
318.00 1.296
318.10 1.295
318.20 1.295
318.30 1.294
318.40 1.294
318.50 1.294
318.60 1.293
318.70 1.293
318.80 1.292
318.90 1.292
319.00 1.292
319.10 1.291
319.20 1.291
319.30 1.29
319.40 1.29
319.50 1.29
319.60 1.289
319.70 1.289
319.80 1.288
319.90 1.288
320.00 1.288
320.10 1.287
320.20 1.287
320.30 1.286
320.40 1.286
320.50 1.286
320.60 1.285
320.70 1.285
320.80 1.284
320.90 1.284
321.00 1.283
321.10 1.283
321.20 1.283
321.30 1.282
321.40 1.282
321.50 1.281
321.60 1.281
321.70 1.281
321.80 1.28
321.90 1.28
322.00 1.279
322.10 1.279
322.20 1.279
322.30 1.278
322.40 1.278
322.50 1.277
322.60 1.277
322.70 1.277
322.80 1.276
322.90 1.276
323.00 1.275
323.10 1.275
323.20 1.275
323.30 1.274
323.40 1.274
323.50 1.273
323.60 1.273
323.70 1.273
323.80 1.272
323.90 1.272
324.00 1.271
324.10 1.271
324.20 1.27
324.30 1.27
324.40 1.27
324.50 1.269
324.60 1.269
324.70 1.268
324.80 1.268
324.90 1.268
325.00 1.267
325.10 1.267
325.20 1.266
325.30 1.266
325.40 1.266
325.50 1.265
325.60 1.265
325.70 1.264
325.80 1.264
325.90 1.263
326.00 1.263
326.10 1.263
326.20 1.262
326.30 1.262
326.40 1.261
326.50 1.261
326.60 1.261
326.70 1.26
326.80 1.26
326.90 1.259
327.00 1.259
327.10 1.259
327.20 1.258
327.30 1.258
327.40 1.257
327.50 1.257
327.60 1.256
327.70 1.256
327.80 1.256
327.90 1.255
328.00 1.255
328.10 1.254
328.20 1.254
328.30 1.254
328.40 1.253
328.50 1.253
328.60 1.252
328.70 1.252
328.80 1.252
328.90 1.251
329.00 1.251
329.10 1.25
329.20 1.25
329.30 1.25
329.40 1.249
329.50 1.249
329.60 1.248
329.70 1.248
329.80 1.247
329.90 1.247
330.00 1.247
330.10 1.246
330.20 1.246
330.30 1.245
330.40 1.245
330.50 1.245
330.60 1.244
330.70 1.244
330.80 1.243
330.90 1.243
331.00 1.243
331.10 1.242
331.20 1.242
331.30 1.241
331.40 1.241
331.50 1.24
331.60 1.24
331.70 1.24
331.80 1.239
331.90 1.239
332.00 1.238
332.10 1.238
332.20 1.238
332.30 1.237
332.40 1.237
332.50 1.236
332.60 1.236
332.70 1.236
332.80 1.235
332.90 1.235
333.00 1.234
333.10 1.234
333.20 1.233
333.30 1.233
333.40 1.233
333.50 1.232
333.60 1.232
333.70 1.231
333.80 1.231
333.90 1.231
334.00 1.23
334.10 1.23
334.20 1.229
334.30 1.229
334.40 1.228
334.50 1.228
334.60 1.228
334.70 1.227
334.80 1.227
334.90 1.226
335.00 1.226
335.10 1.226
335.20 1.225
335.30 1.225
335.40 1.224
335.50 1.224
335.60 1.224
335.70 1.223
335.80 1.223
335.90 1.222
336.00 1.222
336.10 1.221
336.20 1.221
336.30 1.221
336.40 1.22
336.50 1.22
336.60 1.219
336.70 1.219
336.80 1.219
336.90 1.218
337.00 1.218
337.10 1.217
337.20 1.217
337.30 1.216
337.40 1.216
337.50 1.216
337.60 1.215
337.70 1.215
337.80 1.214
337.90 1.214
338.00 1.214
338.10 1.213
338.20 1.213
338.30 1.212
338.40 1.212
338.50 1.212
338.60 1.211
338.70 1.211
338.80 1.21
338.90 1.21
339.00 1.209
339.10 1.209
339.20 1.209
339.30 1.208
339.40 1.208
339.50 1.207
339.60 1.207
339.70 1.207
339.80 1.206
339.90 1.206
340.00 1.205
340.10 1.205
340.20 1.204
340.30 1.204
340.40 1.204
340.50 1.203
340.60 1.203
340.70 1.202
340.80 1.202
340.90 1.202
341.00 1.201
341.10 1.201
341.20 1.2
341.30 1.2
341.40 1.199
341.50 1.199
341.60 1.199
341.70 1.198
341.80 1.198
341.90 1.197
342.00 1.197
342.10 1.197
342.20 1.196
342.30 1.196
342.40 1.195
342.50 1.195
342.60 1.194
342.70 1.194
342.80 1.194
342.90 1.193
343.00 1.193
343.10 1.192
343.20 1.192
343.30 1.192
343.40 1.191
343.50 1.191
343.60 1.19
343.70 1.19
343.80 1.19
343.90 1.189
344.00 1.189
344.10 1.188
344.20 1.188
344.30 1.187
344.40 1.187
344.50 1.187
344.60 1.186
344.70 1.186
344.80 1.185
344.90 1.185
345.00 1.185
345.10 1.184
345.20 1.184
345.30 1.183
345.40 1.183
345.50 1.182
345.60 1.182
345.70 1.182
345.80 1.181
345.90 1.181
346.00 1.18
346.10 1.18
346.20 1.18
346.30 1.179
346.40 1.179
346.50 1.178
346.60 1.178
346.70 1.177
346.80 1.177
346.90 1.177
347.00 1.176
347.10 1.176
347.20 1.175
347.30 1.175
347.40 1.175
347.50 1.174
347.60 1.174
347.70 1.173
347.80 1.173
347.90 1.173
348.00 1.172
348.10 1.172
348.20 1.171
348.30 1.171
348.40 1.17
348.50 1.17
348.60 1.17
348.70 1.169
348.80 1.169
348.90 1.168
349.00 1.168
349.10 1.168
349.20 1.167
349.30 1.167
349.40 1.166
349.50 1.166
349.60 1.165
349.70 1.165
349.80 1.165
349.90 1.164
350.00 1.164
350.10 1.163
350.20 1.163
350.30 1.163
350.40 1.162
350.50 1.162
350.60 1.161
350.70 1.161
350.80 1.16
350.90 1.16
351.00 1.16
351.10 1.159
351.20 1.159
351.30 1.158
351.40 1.158
351.50 1.158
351.60 1.157
351.70 1.157
351.80 1.156
351.90 1.156
352.00 1.156
352.10 1.155
352.20 1.155
352.30 1.154
352.40 1.154
352.50 1.154
352.60 1.153
352.70 1.153
352.80 1.152
352.90 1.152
353.00 1.151
353.10 1.151
353.20 1.151
353.30 1.15
353.40 1.15
353.50 1.149
353.60 1.149
353.70 1.149
353.80 1.148
353.90 1.148
354.00 1.147
354.10 1.147
354.20 1.146
354.30 1.146
354.40 1.146
354.50 1.145
354.60 1.145
354.70 1.144
354.80 1.144
354.90 1.144
355.00 1.143
355.10 1.143
355.20 1.142
355.30 1.142
355.40 1.142
355.50 1.141
355.60 1.141
355.70 1.14
355.80 1.14
355.90 1.14
356.00 1.139
356.10 1.139
356.20 1.138
356.30 1.138
356.40 1.137
356.50 1.137
356.60 1.137
356.70 1.136
356.80 1.136
356.90 1.135
357.00 1.135
357.10 1.135
357.20 1.134
357.30 1.134
357.40 1.133
357.50 1.133
357.60 1.133
357.70 1.132
357.80 1.132
357.90 1.131
358.00 1.131
358.10 1.13
358.20 1.13
358.30 1.13
358.40 1.129
358.50 1.129
358.60 1.128
358.70 1.128
358.80 1.128
358.90 1.127
359.00 1.127
359.10 1.126
359.20 1.126
359.30 1.126
359.40 1.125
359.50 1.125
359.60 1.124
359.70 1.124
359.80 1.123
359.90 1.123
360.00 1.123
360.10 1.122
360.20 1.122
360.30 1.121
360.40 1.121
360.50 1.121
360.60 1.12
360.70 1.12
360.80 1.119
360.90 1.119
361.00 1.119
361.10 1.118
361.20 1.118
361.30 1.117
361.40 1.117
361.50 1.117
361.60 1.116
361.70 1.116
361.80 1.115
361.90 1.115
362.00 1.114
362.10 1.114
362.20 1.114
362.30 1.113
362.40 1.113
362.50 1.112
362.60 1.112
362.70 1.112
362.80 1.111
362.90 1.111
363.00 1.11
363.10 1.11
363.20 1.11
363.30 1.109
363.40 1.109
363.50 1.108
363.60 1.108
363.70 1.107
363.80 1.107
363.90 1.106
364.00 1.106
364.10 1.106
364.20 1.105
364.30 1.105
364.40 1.104
364.50 1.104
364.60 1.104
364.70 1.103
364.80 1.103
364.90 1.102
365.00 1.102
365.10 1.102
365.20 1.101
365.30 1.101
365.40 1.101
365.50 1.1
365.60 1.1
365.70 1.1
365.80 1.099
365.90 1.099
366.00 1.099
366.10 1.098
366.20 1.098
366.30 1.098
366.40 1.097
366.50 1.097
366.60 1.097
366.70 1.096
366.80 1.096
366.90 1.096
367.00 1.096
367.10 1.095
367.20 1.095
367.30 1.095
367.40 1.094
367.50 1.094
367.60 1.094
367.70 1.094
367.80 1.093
367.90 1.093
368.00 1.093
368.10 1.094
368.20 1.095
368.30 1.096
368.40 1.097
368.50 1.098
368.60 1.099
368.70 1.1
368.80 1.101
368.90 1.102
369.00 1.103
369.10 1.104
369.20 1.105
369.30 1.106
369.40 1.107
369.50 1.108
369.60 1.109
369.70 1.11
369.80 1.111
369.90 1.112
370.00 1.113
370.10 1.116
370.20 1.118
370.30 1.121
370.40 1.124
370.50 1.126
370.60 1.129
370.70 1.132
370.80 1.134
370.90 1.137
371.00 1.139
371.10 1.142
371.20 1.145
371.30 1.147
371.40 1.15
371.50 1.153
371.60 1.155
371.70 1.158
371.80 1.16
371.90 1.163
372.00 1.165
372.10 1.169
372.20 1.172
372.30 1.175
372.40 1.178
372.50 1.182
372.60 1.185
372.70 1.188
372.80 1.191
372.90 1.194
373.00 1.198
373.10 1.201
373.20 1.204
373.30 1.207
373.40 1.21
373.50 1.213
373.60 1.217
373.70 1.22
373.80 1.223
373.90 1.226
374.00 1.229
374.10 1.232
374.20 1.235
374.30 1.237
374.40 1.24
374.50 1.243
374.60 1.246
374.70 1.248
374.80 1.251
374.90 1.254
375.00 1.256
375.10 1.259
375.20 1.262
375.30 1.265
375.40 1.267
375.50 1.27
375.60 1.273
375.70 1.275
375.80 1.278
375.90 1.281
376.00 1.283
376.10 1.285
376.20 1.286
376.30 1.287
376.40 1.289
376.50 1.29
376.60 1.291
376.70 1.292
376.80 1.294
376.90 1.295
377.00 1.296
377.10 1.294
377.20 1.293
377.30 1.291
377.40 1.289
377.50 1.287
377.60 1.285
377.70 1.284
377.80 1.282
377.90 1.28
378.00 1.278
378.10 1.264
378.20 1.25
378.30 1.236
378.40 1.221
378.50 1.207
378.60 1.193
378.70 1.179
378.80 1.165
378.90 1.151
379.00 1.137
379.10 1.113
379.20 1.089
379.30 1.066
379.40 1.042
379.50 1.018
379.60 0.9946
379.70 0.9711
379.80 0.9475
379.90 0.924
380.00 0.9005
380.10 0.9323
380.20 0.9642
380.30 0.996
380.40 1.028
380.50 1.06
380.60 1.091
380.70 1.123
380.80 1.155
380.90 1.186
381.00 1.218
381.10 1.225
381.20 1.232
381.30 1.239
381.40 1.246
381.50 1.253
381.60 1.254
381.70 1.253
381.80 1.249
381.90 1.244
382.00 1.237
382.10 1.227
382.20 1.214
382.30 1.179
382.40 1.143
382.50 1.107
382.60 1.072
382.70 1.036
382.80 1.001
382.90 0.9652
383.00 0.9297
383.10 0.8943
383.20 0.859
383.30 0.7911
383.40 0.713
383.50 0.631
383.60 0.6486
383.70 0.7309
383.80 0.8075
383.90 0.8737
384.00 0.9317
384.10 0.984
384.20 1.031
384.30 1.074
384.40 1.112
384.50 1.145
384.60 1.173
384.70 1.198
384.80 1.219
384.90 1.237
385.00 1.252
385.10 1.265
385.20 1.276
385.30 1.286
385.40 1.293
385.50 1.3
385.60 1.305
385.70 1.309
385.80 1.312
385.90 1.315
386.00 1.316
386.10 1.316
386.20 1.316
386.30 1.314
386.40 1.311
386.50 1.308
386.60 1.304
386.70 1.298
386.80 1.292
386.90 1.284
387.00 1.276
387.10 1.266
387.20 1.254
387.30 1.241
387.40 1.226
387.50 1.209
387.60 1.189
387.70 1.167
387.80 1.139
387.90 1.108
388.00 1.073
388.10 1.029
388.20 0.9816
388.30 0.9293
388.40 0.8686
388.50 0.8037
388.60 0.7346
388.70 0.6543
388.80 0.5734
388.90 0.4917
389.00 0.5676
389.10 0.646
389.20 0.727
389.30 0.7967
389.40 0.862
389.50 0.9231
389.60 0.976
389.70 1.025
389.80 1.069
389.90 1.105
390.00 1.137
390.10 1.166
390.20 1.189
390.30 1.21
390.40 1.229
390.50 1.246
390.60 1.261
390.70 1.274
390.80 1.286
390.90 1.298
391.00 1.308
391.10 1.317
391.20 1.325
391.30 1.333
391.40 1.34
391.50 1.347
391.60 1.353
391.70 1.358
391.80 1.363
391.90 1.367
392.00 1.371
392.10 1.374
392.20 1.377
392.30 1.379
392.40 1.381
392.50 1.382
392.60 1.383
392.70 1.384
392.80 1.384
392.90 1.384
393.00 1.383
393.10 1.382
393.20 1.381
393.30 1.379
393.40 1.376
393.50 1.373
393.60 1.37
393.70 1.366
393.80 1.362
393.90 1.357
394.00 1.352
394.10 1.346
394.20 1.339
394.30 1.332
394.40 1.324
394.50 1.316
394.60 1.307
394.70 1.297
394.80 1.287
394.90 1.275
395.00 1.263
395.10 1.249
395.20 1.235
395.30 1.219
395.40 1.202
395.50 1.184
395.60 1.163
395.70 1.14
395.80 1.115
395.90 1.085
396.00 1.052
396.10 1.016
396.20 0.9718
396.30 0.9227
396.40 0.8687
396.50 0.8057
396.60 0.7396
396.70 0.6702
396.80 0.5935
396.90 0.5122
397.00 0.4261
397.10 0.5047
397.20 0.5826
397.30 0.6598
397.40 0.7295
397.50 0.7958
397.60 0.8589
397.70 0.9134
397.80 0.9629
397.90 1.008
398.00 1.044
398.10 1.077
398.20 1.106
398.30 1.131
398.40 1.154
398.50 1.175
398.60 1.193
398.70 1.21
398.80 1.226
398.90 1.24
399.00 1.253
399.10 1.266
399.20 1.277
399.30 1.288
399.40 1.298
399.50 1.307
399.60 1.316
399.70 1.325
399.80 1.332
399.90 1.339
400.00 1.346
400.10 1.352
400.20 1.358
400.30 1.364
400.40 1.369
400.50 1.374
400.60 1.378
400.70 1.383
400.80 1.387
400.90 1.39
401.00 1.394
401.10 1.397
401.20 1.4
401.30 1.403
401.40 1.405
401.50 1.408
401.60 1.41
401.70 1.412
401.80 1.413
401.90 1.415
402.00 1.416
402.10 1.418
402.20 1.419
402.30 1.42
402.40 1.421
402.50 1.422
402.60 1.422
402.70 1.423
402.80 1.423
402.90 1.423
403.00 1.423
403.10 1.423
403.20 1.423
403.30 1.423
403.40 1.423
403.50 1.422
403.60 1.422
403.70 1.421
403.80 1.421
403.90 1.42
404.00 1.419
404.10 1.418
404.20 1.416
404.30 1.415
404.40 1.414
404.50 1.412
404.60 1.41
404.70 1.408
404.80 1.406
404.90 1.404
405.00 1.402
405.10 1.4
405.20 1.397
405.30 1.394
405.40 1.391
405.50 1.388
405.60 1.385
405.70 1.381
405.80 1.378
405.90 1.374
406.00 1.37
406.10 1.366
406.20 1.361
406.30 1.356
406.40 1.351
406.50 1.346
406.60 1.341
406.70 1.335
406.80 1.329
406.90 1.322
407.00 1.315
407.10 1.308
407.20 1.3
407.30 1.292
407.40 1.283
407.50 1.274
407.60 1.264
407.70 1.254
407.80 1.243
407.90 1.231
408.00 1.218
408.10 1.205
408.20 1.191
408.30 1.175
408.40 1.159
408.50 1.142
408.60 1.123
408.70 1.103
408.80 1.081
408.90 1.058
409.00 1.032
409.10 1.002
409.20 0.9697
409.30 0.9341
409.40 0.8908
409.50 0.8431
409.60 0.7912
409.70 0.7318
409.80 0.6701
409.90 0.6061
410.00 0.5352
410.10 0.4706
410.20 0.4125
410.30 0.497
410.40 0.5731
410.50 0.6408
410.60 0.7032
410.70 0.7626
410.80 0.819
410.90 0.8672
411.00 0.9111
411.10 0.9508
411.20 0.9834
411.30 1.013
411.40 1.041
411.50 1.064
411.60 1.086
411.70 1.106
411.80 1.124
411.90 1.141
412.00 1.157
412.10 1.171
412.20 1.185
412.30 1.198
412.40 1.21
412.50 1.221
412.60 1.232
412.70 1.241
412.80 1.251
412.90 1.259
413.00 1.267
413.10 1.275
413.20 1.282
413.30 1.288
413.40 1.295
413.50 1.301
413.60 1.306
413.70 1.311
413.80 1.316
413.90 1.321
414.00 1.325
414.10 1.329
414.20 1.333
414.30 1.337
414.40 1.34
414.50 1.343
414.60 1.347
414.70 1.349
414.80 1.352
414.90 1.355
415.00 1.357
415.10 1.36
415.20 1.362
415.30 1.364
415.40 1.366
415.50 1.368
415.60 1.369
415.70 1.371
415.80 1.372
415.90 1.374
416.00 1.375
416.10 1.376
416.20 1.377
416.30 1.378
416.40 1.379
416.50 1.38
416.60 1.381
416.70 1.382
416.80 1.383
416.90 1.383
417.00 1.384
417.10 1.385
417.20 1.385
417.30 1.386
417.40 1.386
417.50 1.386
417.60 1.387
417.70 1.387
417.80 1.387
417.90 1.388
418.00 1.388
418.10 1.388
418.20 1.388
418.30 1.388
418.40 1.388
418.50 1.388
418.60 1.388
418.70 1.388
418.80 1.388
418.90 1.388
419.00 1.388
419.10 1.388
419.20 1.388
419.30 1.388
419.40 1.388
419.50 1.387
419.60 1.387
419.70 1.387
419.80 1.387
419.90 1.386
420.00 1.386
420.10 1.386
420.20 1.386
420.30 1.385
420.40 1.385
420.50 1.384
420.60 1.384
420.70 1.384
420.80 1.383
420.90 1.383
421.00 1.382
421.10 1.382
421.20 1.382
421.30 1.381
421.40 1.381
421.50 1.38
421.60 1.38
421.70 1.379
421.80 1.378
421.90 1.378
422.00 1.377
422.10 1.377
422.20 1.376
422.30 1.376
422.40 1.375
422.50 1.374
422.60 1.374
422.70 1.373
422.80 1.372
422.90 1.372
423.00 1.371
423.10 1.37
423.20 1.369
423.30 1.369
423.40 1.368
423.50 1.367
423.60 1.366
423.70 1.366
423.80 1.365
423.90 1.364
424.00 1.363
424.10 1.362
424.20 1.361
424.30 1.36
424.40 1.36
424.50 1.359
424.60 1.358
424.70 1.357
424.80 1.356
424.90 1.355
425.00 1.354
425.10 1.353
425.20 1.352
425.30 1.351
425.40 1.35
425.50 1.348
425.60 1.347
425.70 1.346
425.80 1.345
425.90 1.344
426.00 1.342
426.10 1.341
426.20 1.34
426.30 1.338
426.40 1.337
426.50 1.335
426.60 1.334
426.70 1.333
426.80 1.331
426.90 1.33
427.00 1.328
427.10 1.326
427.20 1.325
427.30 1.323
427.40 1.321
427.50 1.319
427.60 1.318
427.70 1.316
427.80 1.314
427.90 1.312
428.00 1.309
428.10 1.307
428.20 1.305
428.30 1.303
428.40 1.3
428.50 1.298
428.60 1.295
428.70 1.292
428.80 1.289
428.90 1.286
429.00 1.283
429.10 1.28
429.20 1.277
429.30 1.274
429.40 1.27
429.50 1.266
429.60 1.263
429.70 1.259
429.80 1.254
429.90 1.25
430.00 1.246
430.10 1.241
430.20 1.236
430.30 1.231
430.40 1.226
430.50 1.22
430.60 1.215
430.70 1.209
430.80 1.203
430.90 1.196
431.00 1.189
431.10 1.182
431.20 1.175
431.30 1.168
431.40 1.16
431.50 1.151
431.60 1.142
431.70 1.133
431.80 1.123
431.90 1.112
432.00 1.1
432.10 1.087
432.20 1.073
432.30 1.057
432.40 1.041
432.50 1.022
432.60 1.001
432.70 0.9785
432.80 0.953
432.90 0.9262
433.00 0.8983
433.10 0.8684
433.20 0.8364
433.30 0.8021
433.40 0.7602
433.50 0.7145
433.60 0.6649
433.70 0.6112
433.80 0.5544
433.90 0.4945
434.00 0.4063
434.10 0.408
434.20 0.4994
434.30 0.5587
434.40 0.615
434.50 0.6681
434.60 0.7169
434.70 0.7617
434.80 0.8025
434.90 0.8358
435.00 0.8669
435.10 0.8959
435.20 0.9229
435.30 0.9487
435.40 0.9732
435.50 0.9945
435.60 1.014
435.70 1.032
435.80 1.048
435.90 1.062
436.00 1.075
436.10 1.087
436.20 1.097
436.30 1.108
436.40 1.116
436.50 1.125
436.60 1.133
436.70 1.14
436.80 1.147
436.90 1.153
437.00 1.159
437.10 1.165
437.20 1.171
437.30 1.176
437.40 1.181
437.50 1.186
437.60 1.19
437.70 1.195
437.80 1.199
437.90 1.203
438.00 1.207
438.10 1.21
438.20 1.213
438.30 1.216
438.40 1.219
438.50 1.222
438.60 1.225
438.70 1.227
438.80 1.23
438.90 1.232
439.00 1.234
439.10 1.236
439.20 1.238
439.30 1.24
439.40 1.241
439.50 1.243
439.60 1.245
439.70 1.246
439.80 1.247
439.90 1.249
440.00 1.25
440.10 1.251
440.20 1.252
440.30 1.253
440.40 1.254
440.50 1.254
440.60 1.255
440.70 1.256
440.80 1.256
440.90 1.257
441.00 1.258
441.10 1.258
441.20 1.259
441.30 1.259
441.40 1.259
441.50 1.26
441.60 1.26
441.70 1.261
441.80 1.261
441.90 1.261
442.00 1.261
442.10 1.262
442.20 1.262
442.30 1.262
442.40 1.262
442.50 1.262
442.60 1.262
442.70 1.262
442.80 1.262
442.90 1.262
443.00 1.262
443.10 1.262
443.20 1.262
443.30 1.262
443.40 1.262
443.50 1.262
443.60 1.262
443.70 1.262
443.80 1.262
443.90 1.262
444.00 1.261
444.10 1.261
444.20 1.261
444.30 1.261
444.40 1.261
444.50 1.261
444.60 1.26
444.70 1.26
444.80 1.26
444.90 1.26
445.00 1.26
445.10 1.259
445.20 1.259
445.30 1.259
445.40 1.259
445.50 1.258
445.60 1.258
445.70 1.258
445.80 1.257
445.90 1.257
446.00 1.257
446.10 1.256
446.20 1.256
446.30 1.256
446.40 1.255
446.50 1.255
446.60 1.255
446.70 1.254
446.80 1.254
446.90 1.254
447.00 1.253
447.10 1.253
447.20 1.253
447.30 1.252
447.40 1.252
447.50 1.252
447.60 1.251
447.70 1.251
447.80 1.25
447.90 1.25
448.00 1.25
448.10 1.249
448.20 1.249
448.30 1.248
448.40 1.248
448.50 1.247
448.60 1.247
448.70 1.247
448.80 1.246
448.90 1.246
449.00 1.245
449.10 1.245
449.20 1.245
449.30 1.244
449.40 1.244
449.50 1.243
449.60 1.243
449.70 1.242
449.80 1.242
449.90 1.241
450.00 1.241
450.10 1.241
450.20 1.24
450.30 1.24
450.40 1.239
450.50 1.239
450.60 1.238
450.70 1.238
450.80 1.237
450.90 1.237
451.00 1.236
451.10 1.236
451.20 1.236
451.30 1.235
451.40 1.235
451.50 1.234
451.60 1.234
451.70 1.233
451.80 1.233
451.90 1.232
452.00 1.232
452.10 1.231
452.20 1.231
452.30 1.23
452.40 1.23
452.50 1.229
452.60 1.229
452.70 1.228
452.80 1.228
452.90 1.227
453.00 1.227
453.10 1.226
453.20 1.226
453.30 1.225
