# Version 2.1 - nm, norm@500 to 1, cut digits, bergeron_85000_70.dat_85000
# Wavelength(nm)  Flambda(ergs/cm^s/s/nm)
300.00 6.707
300.10 6.698
300.20 6.69
300.30 6.682
300.40 6.673
300.50 6.665
300.60 6.657
300.70 6.649
300.80 6.64
300.90 6.632
301.00 6.624
301.10 6.616
301.20 6.607
301.30 6.599
301.40 6.591
301.50 6.583
301.60 6.575
301.70 6.567
301.80 6.559
301.90 6.55
302.00 6.542
302.10 6.534
302.20 6.526
302.30 6.518
302.40 6.51
302.50 6.502
302.60 6.494
302.70 6.486
302.80 6.478
302.90 6.47
303.00 6.462
303.10 6.454
303.20 6.446
303.30 6.438
303.40 6.43
303.50 6.422
303.60 6.414
303.70 6.407
303.80 6.399
303.90 6.391
304.00 6.383
304.10 6.375
304.20 6.367
304.30 6.359
304.40 6.352
304.50 6.344
304.60 6.336
304.70 6.328
304.80 6.321
304.90 6.313
305.00 6.305
305.10 6.297
305.20 6.29
305.30 6.282
305.40 6.274
305.50 6.267
305.60 6.259
305.70 6.251
305.80 6.244
305.90 6.236
306.00 6.228
306.10 6.221
306.20 6.213
306.30 6.206
306.40 6.198
306.50 6.19
306.60 6.183
306.70 6.175
306.80 6.168
306.90 6.16
307.00 6.153
307.10 6.145
307.20 6.138
307.30 6.13
307.40 6.123
307.50 6.116
307.60 6.108
307.70 6.101
307.80 6.093
307.90 6.086
308.00 6.078
308.10 6.071
308.20 6.064
308.30 6.056
308.40 6.049
308.50 6.042
308.60 6.034
308.70 6.027
308.80 6.02
308.90 6.012
309.00 6.005
309.10 5.998
309.20 5.991
309.30 5.983
309.40 5.976
309.50 5.969
309.60 5.962
309.70 5.955
309.80 5.947
309.90 5.94
310.00 5.933
310.10 5.926
310.20 5.919
310.30 5.912
310.40 5.904
310.50 5.897
310.60 5.89
310.70 5.883
310.80 5.876
310.90 5.869
311.00 5.862
311.10 5.855
311.20 5.848
311.30 5.841
311.40 5.834
311.50 5.827
311.60 5.82
311.70 5.813
311.80 5.806
311.90 5.799
312.00 5.792
312.10 5.785
312.20 5.778
312.30 5.771
312.40 5.764
312.50 5.757
312.60 5.75
312.70 5.744
312.80 5.737
312.90 5.73
313.00 5.723
313.10 5.716
313.20 5.709
313.30 5.702
313.40 5.696
313.50 5.689
313.60 5.682
313.70 5.675
313.80 5.669
313.90 5.662
314.00 5.655
314.10 5.648
314.20 5.642
314.30 5.635
314.40 5.628
314.50 5.621
314.60 5.615
314.70 5.608
314.80 5.601
314.90 5.595
315.00 5.588
315.10 5.581
315.20 5.575
315.30 5.568
315.40 5.562
315.50 5.555
315.60 5.548
315.70 5.542
315.80 5.535
315.90 5.529
316.00 5.522
316.10 5.516
316.20 5.509
316.30 5.503
316.40 5.496
316.50 5.49
316.60 5.483
316.70 5.477
316.80 5.47
316.90 5.464
317.00 5.457
317.10 5.451
317.20 5.444
317.30 5.438
317.40 5.432
317.50 5.425
317.60 5.419
317.70 5.412
317.80 5.406
317.90 5.4
318.00 5.393
318.10 5.387
318.20 5.381
318.30 5.374
318.40 5.368
318.50 5.362
318.60 5.355
318.70 5.349
318.80 5.343
318.90 5.336
319.00 5.33
319.10 5.324
319.20 5.318
319.30 5.311
319.40 5.305
319.50 5.299
319.60 5.293
319.70 5.287
319.80 5.28
319.90 5.274
320.00 5.268
320.10 5.262
320.20 5.256
320.30 5.25
320.40 5.243
320.50 5.237
320.60 5.231
320.70 5.225
320.80 5.219
320.90 5.213
321.00 5.207
321.10 5.201
321.20 5.195
321.30 5.189
321.40 5.182
321.50 5.176
321.60 5.17
321.70 5.164
321.80 5.158
321.90 5.152
322.00 5.146
322.10 5.14
322.20 5.134
322.30 5.128
322.40 5.123
322.50 5.117
322.60 5.111
322.70 5.105
322.80 5.099
322.90 5.093
323.00 5.087
323.10 5.081
323.20 5.075
323.30 5.069
323.40 5.063
323.50 5.058
323.60 5.052
323.70 5.046
323.80 5.04
323.90 5.034
324.00 5.028
324.10 5.022
324.20 5.017
324.30 5.011
324.40 5.005
324.50 4.999
324.60 4.994
324.70 4.988
324.80 4.982
324.90 4.976
325.00 4.971
325.10 4.965
325.20 4.959
325.30 4.953
325.40 4.948
325.50 4.942
325.60 4.936
325.70 4.931
325.80 4.925
325.90 4.919
326.00 4.914
326.10 4.908
326.20 4.902
326.30 4.897
326.40 4.891
326.50 4.885
326.60 4.88
326.70 4.874
326.80 4.869
326.90 4.863
327.00 4.857
327.10 4.852
327.20 4.846
327.30 4.841
327.40 4.835
327.50 4.83
327.60 4.824
327.70 4.819
327.80 4.813
327.90 4.808
328.00 4.802
328.10 4.797
328.20 4.791
328.30 4.786
328.40 4.78
328.50 4.775
328.60 4.769
328.70 4.764
328.80 4.758
328.90 4.753
329.00 4.748
329.10 4.742
329.20 4.737
329.30 4.731
329.40 4.726
329.50 4.721
329.60 4.715
329.70 4.71
329.80 4.705
329.90 4.699
330.00 4.694
330.10 4.688
330.20 4.683
330.30 4.678
330.40 4.673
330.50 4.667
330.60 4.662
330.70 4.657
330.80 4.651
330.90 4.646
331.00 4.641
331.10 4.636
331.20 4.63
331.30 4.625
331.40 4.62
331.50 4.615
331.60 4.609
331.70 4.604
331.80 4.599
331.90 4.594
332.00 4.589
332.10 4.583
332.20 4.578
332.30 4.573
332.40 4.568
332.50 4.563
332.60 4.558
332.70 4.552
332.80 4.547
332.90 4.542
333.00 4.537
333.10 4.532
333.20 4.527
333.30 4.522
333.40 4.517
333.50 4.512
333.60 4.507
333.70 4.501
333.80 4.496
333.90 4.491
334.00 4.486
334.10 4.481
334.20 4.476
334.30 4.471
334.40 4.466
334.50 4.461
334.60 4.456
334.70 4.451
334.80 4.446
334.90 4.441
335.00 4.436
335.10 4.431
335.20 4.426
335.30 4.421
335.40 4.416
335.50 4.411
335.60 4.406
335.70 4.402
335.80 4.397
335.90 4.392
336.00 4.387
336.10 4.382
336.20 4.377
336.30 4.372
336.40 4.367
336.50 4.362
336.60 4.358
336.70 4.353
336.80 4.348
336.90 4.343
337.00 4.338
337.10 4.333
337.20 4.328
337.30 4.324
337.40 4.319
337.50 4.314
337.60 4.309
337.70 4.304
337.80 4.3
337.90 4.295
338.00 4.29
338.10 4.285
338.20 4.281
338.30 4.276
338.40 4.271
338.50 4.266
338.60 4.262
338.70 4.257
338.80 4.252
338.90 4.247
339.00 4.243
339.10 4.238
339.20 4.233
339.30 4.229
339.40 4.224
339.50 4.219
339.60 4.215
339.70 4.21
339.80 4.205
339.90 4.201
340.00 4.196
340.10 4.191
340.20 4.187
340.30 4.182
340.40 4.177
340.50 4.173
340.60 4.168
340.70 4.164
340.80 4.159
340.90 4.155
341.00 4.15
341.10 4.145
341.20 4.141
341.30 4.136
341.40 4.132
341.50 4.127
341.60 4.123
341.70 4.118
341.80 4.114
341.90 4.109
342.00 4.104
342.10 4.1
342.20 4.095
342.30 4.091
342.40 4.086
342.50 4.082
342.60 4.078
342.70 4.073
342.80 4.069
342.90 4.064
343.00 4.06
343.10 4.055
343.20 4.051
343.30 4.046
343.40 4.042
343.50 4.038
343.60 4.033
343.70 4.029
343.80 4.024
343.90 4.02
344.00 4.015
344.10 4.011
344.20 4.007
344.30 4.002
344.40 3.998
344.50 3.994
344.60 3.989
344.70 3.985
344.80 3.981
344.90 3.976
345.00 3.972
345.10 3.968
345.20 3.963
345.30 3.959
345.40 3.955
345.50 3.95
345.60 3.946
345.70 3.942
345.80 3.937
345.90 3.933
346.00 3.929
346.10 3.925
346.20 3.92
346.30 3.916
346.40 3.912
346.50 3.908
346.60 3.903
346.70 3.899
346.80 3.895
346.90 3.891
347.00 3.886
347.10 3.882
347.20 3.878
347.30 3.874
347.40 3.87
347.50 3.865
347.60 3.861
347.70 3.857
347.80 3.853
347.90 3.849
348.00 3.845
348.10 3.84
348.20 3.836
348.30 3.832
348.40 3.828
348.50 3.824
348.60 3.82
348.70 3.816
348.80 3.812
348.90 3.807
349.00 3.803
349.10 3.799
349.20 3.795
349.30 3.791
349.40 3.787
349.50 3.783
349.60 3.779
349.70 3.775
349.80 3.771
349.90 3.767
350.00 3.763
350.10 3.758
350.20 3.754
350.30 3.75
350.40 3.746
350.50 3.742
350.60 3.738
350.70 3.734
350.80 3.73
350.90 3.726
351.00 3.722
351.10 3.718
351.20 3.714
351.30 3.71
351.40 3.706
351.50 3.702
351.60 3.699
351.70 3.695
351.80 3.691
351.90 3.687
352.00 3.683
352.10 3.679
352.20 3.675
352.30 3.671
352.40 3.667
352.50 3.663
352.60 3.659
352.70 3.655
352.80 3.651
352.90 3.648
353.00 3.644
353.10 3.64
353.20 3.636
353.30 3.632
353.40 3.628
353.50 3.624
353.60 3.62
353.70 3.617
353.80 3.613
353.90 3.609
354.00 3.605
354.10 3.601
354.20 3.597
354.30 3.594
354.40 3.59
354.50 3.586
354.60 3.582
354.70 3.578
354.80 3.575
354.90 3.571
355.00 3.567
355.10 3.563
355.20 3.559
355.30 3.556
355.40 3.552
355.50 3.548
355.60 3.544
355.70 3.541
355.80 3.537
355.90 3.533
356.00 3.529
356.10 3.526
356.20 3.522
356.30 3.518
356.40 3.514
356.50 3.511
356.60 3.507
356.70 3.503
356.80 3.5
356.90 3.496
357.00 3.492
357.10 3.489
357.20 3.485
357.30 3.481
357.40 3.478
357.50 3.474
357.60 3.47
357.70 3.467
357.80 3.463
357.90 3.459
358.00 3.456
358.10 3.452
358.20 3.448
358.30 3.445
358.40 3.441
358.50 3.437
358.60 3.434
358.70 3.43
358.80 3.427
358.90 3.423
359.00 3.419
359.10 3.416
359.20 3.412
359.30 3.409
359.40 3.405
359.50 3.402
359.60 3.398
359.70 3.394
359.80 3.391
359.90 3.387
360.00 3.384
360.10 3.38
360.20 3.377
360.30 3.373
360.40 3.37
360.50 3.366
360.60 3.363
360.70 3.359
360.80 3.356
360.90 3.352
361.00 3.349
361.10 3.345
361.20 3.342
361.30 3.338
361.40 3.335
361.50 3.331
361.60 3.328
361.70 3.324
361.80 3.321
361.90 3.317
362.00 3.314
362.10 3.31
362.20 3.307
362.30 3.304
362.40 3.3
362.50 3.297
362.60 3.293
362.70 3.29
362.80 3.286
362.90 3.283
363.00 3.28
363.10 3.276
363.20 3.273
363.30 3.269
363.40 3.266
363.50 3.263
363.60 3.259
363.70 3.256
363.80 3.252
363.90 3.249
364.00 3.246
364.10 3.242
364.20 3.239
364.30 3.236
364.40 3.232
364.50 3.229
364.60 3.226
364.70 3.222
364.80 3.219
364.90 3.216
365.00 3.212
365.10 3.209
365.20 3.206
365.30 3.202
365.40 3.199
365.50 3.196
365.60 3.193
365.70 3.189
365.80 3.186
365.90 3.183
366.00 3.179
366.10 3.176
366.20 3.173
366.30 3.169
366.40 3.166
366.50 3.163
366.60 3.159
366.70 3.156
366.80 3.153
366.90 3.149
367.00 3.146
367.10 3.143
367.20 3.14
367.30 3.136
367.40 3.133
367.50 3.13
367.60 3.126
367.70 3.123
367.80 3.12
367.90 3.117
368.00 3.113
368.10 3.11
368.20 3.107
368.30 3.104
368.40 3.1
368.50 3.097
368.60 3.094
368.70 3.091
368.80 3.087
368.90 3.084
369.00 3.081
369.10 3.078
369.20 3.075
369.30 3.071
369.40 3.068
369.50 3.065
369.60 3.062
369.70 3.059
369.80 3.055
369.90 3.052
370.00 3.049
370.10 3.046
370.20 3.043
370.30 3.04
370.40 3.036
370.50 3.033
370.60 3.03
370.70 3.027
370.80 3.024
370.90 3.021
371.00 3.018
371.10 3.014
371.20 3.011
371.30 3.008
371.40 3.005
371.50 3.002
371.60 2.999
371.70 2.996
371.80 2.993
371.90 2.99
372.00 2.986
372.10 2.983
372.20 2.98
372.30 2.977
372.40 2.974
372.50 2.971
372.60 2.968
372.70 2.965
372.80 2.962
372.90 2.959
373.00 2.956
373.10 2.953
373.20 2.95
373.30 2.947
373.40 2.944
373.50 2.941
373.60 2.938
373.70 2.935
373.80 2.932
373.90 2.929
374.00 2.926
374.10 2.923
374.20 2.92
374.30 2.918
374.40 2.915
374.50 2.912
374.60 2.909
374.70 2.906
374.80 2.903
374.90 2.9
375.00 2.897
375.10 2.895
375.20 2.892
375.30 2.889
375.40 2.886
375.50 2.883
375.60 2.88
375.70 2.877
375.80 2.874
375.90 2.872
376.00 2.869
376.10 2.866
376.20 2.863
376.30 2.86
376.40 2.857
376.50 2.854
376.60 2.852
376.70 2.849
376.80 2.846
376.90 2.843
377.00 2.84
377.10 2.838
377.20 2.835
377.30 2.832
377.40 2.83
377.50 2.827
377.60 2.825
377.70 2.822
377.80 2.82
377.90 2.817
378.00 2.814
378.10 2.812
378.20 2.809
378.30 2.806
378.40 2.803
378.50 2.8
378.60 2.798
378.70 2.795
378.80 2.792
378.90 2.789
379.00 2.786
379.10 2.784
379.20 2.781
379.30 2.778
379.40 2.775
379.50 2.772
379.60 2.77
379.70 2.767
379.80 2.764
379.90 2.761
380.00 2.759
380.10 2.756
380.20 2.754
380.30 2.752
380.40 2.75
380.50 2.748
380.60 2.746
380.70 2.744
380.80 2.742
380.90 2.74
381.00 2.737
381.10 2.735
381.20 2.732
381.30 2.73
381.40 2.727
381.50 2.725
381.60 2.722
381.70 2.719
381.80 2.716
381.90 2.713
382.00 2.71
382.10 2.707
382.20 2.703
382.30 2.7
382.40 2.696
382.50 2.692
382.60 2.689
382.70 2.685
382.80 2.681
382.90 2.677
383.00 2.674
383.10 2.67
383.20 2.666
383.30 2.663
383.40 2.659
383.50 2.656
383.60 2.654
383.70 2.652
383.80 2.651
383.90 2.651
384.00 2.65
384.10 2.649
384.20 2.649
384.30 2.648
384.40 2.647
384.50 2.646
384.60 2.645
384.70 2.644
384.80 2.643
384.90 2.641
385.00 2.64
385.10 2.638
385.20 2.636
385.30 2.635
385.40 2.633
385.50 2.631
385.60 2.629
385.70 2.626
385.80 2.624
385.90 2.622
386.00 2.619
386.10 2.616
386.20 2.613
386.30 2.61
386.40 2.607
386.50 2.604
386.60 2.601
386.70 2.597
386.80 2.593
386.90 2.589
387.00 2.585
387.10 2.581
387.20 2.577
387.30 2.572
387.40 2.568
387.50 2.563
387.60 2.558
387.70 2.553
387.80 2.548
387.90 2.542
388.00 2.536
388.10 2.531
388.20 2.525
388.30 2.519
388.40 2.513
388.50 2.507
388.60 2.501
388.70 2.496
388.80 2.492
388.90 2.489
389.00 2.488
389.10 2.487
389.20 2.488
389.30 2.489
389.40 2.491
389.50 2.492
389.60 2.494
389.70 2.495
389.80 2.497
389.90 2.498
390.00 2.499
390.10 2.5
390.20 2.501
390.30 2.501
390.40 2.502
390.50 2.502
390.60 2.503
390.70 2.503
390.80 2.502
390.90 2.502
391.00 2.502
391.10 2.501
391.20 2.501
391.30 2.5
391.40 2.499
391.50 2.498
391.60 2.497
391.70 2.496
391.80 2.494
391.90 2.493
392.00 2.491
392.10 2.49
392.20 2.488
392.30 2.486
392.40 2.484
392.50 2.482
392.60 2.48
392.70 2.478
392.80 2.475
392.90 2.473
393.00 2.47
393.10 2.468
393.20 2.465
393.30 2.462
393.40 2.459
393.50 2.456
393.60 2.453
393.70 2.45
393.80 2.446
393.90 2.443
394.00 2.439
394.10 2.435
394.20 2.431
394.30 2.427
394.40 2.423
394.50 2.418
394.60 2.414
394.70 2.409
394.80 2.404
394.90 2.398
395.00 2.393
395.10 2.387
395.20 2.381
395.30 2.375
395.40 2.369
395.50 2.362
395.60 2.355
395.70 2.348
395.80 2.34
395.90 2.332
396.00 2.324
396.10 2.316
396.20 2.307
396.30 2.298
396.40 2.289
396.50 2.279
396.60 2.27
396.70 2.26
396.80 2.25
396.90 2.24
397.00 2.231
397.10 2.235
397.20 2.24
397.30 2.246
397.40 2.252
397.50 2.258
397.60 2.263
397.70 2.268
397.80 2.273
397.90 2.277
398.00 2.282
398.10 2.285
398.20 2.289
398.30 2.292
398.40 2.295
398.50 2.298
398.60 2.301
398.70 2.303
398.80 2.305
398.90 2.306
399.00 2.308
399.10 2.309
399.20 2.31
399.30 2.311
399.40 2.311
399.50 2.312
399.60 2.312
399.70 2.312
399.80 2.312
399.90 2.312
400.00 2.312
400.10 2.311
400.20 2.311
400.30 2.31
400.40 2.309
400.50 2.309
400.60 2.308
400.70 2.307
400.80 2.306
400.90 2.304
401.00 2.303
401.10 2.302
401.20 2.301
401.30 2.299
401.40 2.298
401.50 2.296
401.60 2.295
401.70 2.293
401.80 2.291
401.90 2.29
402.00 2.288
402.10 2.286
402.20 2.284
402.30 2.283
402.40 2.281
402.50 2.279
402.60 2.277
402.70 2.275
402.80 2.273
402.90 2.271
403.00 2.269
403.10 2.267
403.20 2.265
403.30 2.263
403.40 2.261
403.50 2.259
403.60 2.257
403.70 2.255
403.80 2.253
403.90 2.25
404.00 2.248
404.10 2.246
404.20 2.244
404.30 2.241
404.40 2.239
404.50 2.237
404.60 2.234
404.70 2.232
404.80 2.23
404.90 2.227
405.00 2.225
405.10 2.222
405.20 2.219
405.30 2.217
405.40 2.214
405.50 2.212
405.60 2.209
405.70 2.206
405.80 2.203
405.90 2.2
406.00 2.197
406.10 2.194
406.20 2.191
406.30 2.188
406.40 2.185
406.50 2.182
406.60 2.178
406.70 2.175
406.80 2.171
406.90 2.168
407.00 2.164
407.10 2.16
407.20 2.156
407.30 2.151
407.40 2.147
407.50 2.142
407.60 2.137
407.70 2.132
407.80 2.127
407.90 2.122
408.00 2.116
408.10 2.11
408.20 2.104
408.30 2.097
408.40 2.09
408.50 2.083
408.60 2.075
408.70 2.067
408.80 2.059
408.90 2.05
409.00 2.041
409.10 2.031
409.20 2.021
409.30 2.01
409.40 1.999
409.50 1.987
409.60 1.975
409.70 1.962
409.80 1.948
409.90 1.934
410.00 1.921
410.10 1.915
410.20 1.915
410.30 1.915
410.40 1.92
410.50 1.931
410.60 1.941
410.70 1.95
410.80 1.96
410.90 1.968
411.00 1.976
411.10 1.983
411.20 1.99
411.30 1.996
411.40 2.002
411.50 2.007
411.60 2.011
411.70 2.016
411.80 2.02
411.90 2.023
412.00 2.026
412.10 2.029
412.20 2.032
412.30 2.034
412.40 2.036
412.50 2.037
412.60 2.039
412.70 2.04
412.80 2.041
412.90 2.042
413.00 2.042
413.10 2.042
413.20 2.043
413.30 2.043
413.40 2.043
413.50 2.042
413.60 2.042
413.70 2.042
413.80 2.041
413.90 2.041
414.00 2.04
414.10 2.039
414.20 2.038
414.30 2.037
414.40 2.036
414.50 2.035
414.60 2.034
414.70 2.033
414.80 2.032
414.90 2.031
415.00 2.03
415.10 2.028
415.20 2.027
415.30 2.026
415.40 2.024
415.50 2.023
415.60 2.021
415.70 2.02
415.80 2.018
415.90 2.017
416.00 2.015
416.10 2.014
416.20 2.012
416.30 2.011
416.40 2.009
416.50 2.008
416.60 2.006
416.70 2.004
416.80 2.003
416.90 2.001
417.00 2
417.10 1.998
417.20 1.996
417.30 1.995
417.40 1.993
417.50 1.991
417.60 1.99
417.70 1.988
417.80 1.986
417.90 1.985
418.00 1.983
418.10 1.981
418.20 1.979
418.30 1.978
418.40 1.976
418.50 1.974
418.60 1.973
418.70 1.971
418.80 1.969
418.90 1.967
419.00 1.966
419.10 1.964
419.20 1.962
419.30 1.961
419.40 1.959
419.50 1.957
419.60 1.955
419.70 1.954
419.80 1.952
419.90 1.95
420.00 1.948
420.10 1.947
420.20 1.945
420.30 1.943
420.40 1.942
420.50 1.94
420.60 1.938
420.70 1.936
420.80 1.935
420.90 1.933
421.00 1.931
421.10 1.929
421.20 1.928
421.30 1.926
421.40 1.924
421.50 1.922
421.60 1.921
421.70 1.919
421.80 1.917
421.90 1.916
422.00 1.914
422.10 1.912
422.20 1.91
422.30 1.909
422.40 1.907
422.50 1.905
422.60 1.903
422.70 1.902
422.80 1.9
422.90 1.898
423.00 1.897
423.10 1.895
423.20 1.893
423.30 1.891
423.40 1.89
423.50 1.888
423.60 1.886
423.70 1.884
423.80 1.883
423.90 1.881
424.00 1.879
424.10 1.877
424.20 1.876
424.30 1.874
424.40 1.872
424.50 1.871
424.60 1.869
424.70 1.867
424.80 1.865
424.90 1.864
425.00 1.862
425.10 1.86
425.20 1.858
425.30 1.857
425.40 1.855
425.50 1.853
425.60 1.851
425.70 1.85
425.80 1.848
425.90 1.846
426.00 1.844
426.10 1.843
426.20 1.841
426.30 1.839
426.40 1.837
426.50 1.836
426.60 1.834
426.70 1.832
426.80 1.83
426.90 1.829
427.00 1.827
427.10 1.825
427.20 1.823
427.30 1.821
427.40 1.82
427.50 1.818
427.60 1.816
427.70 1.814
427.80 1.812
427.90 1.81
428.00 1.808
428.10 1.807
428.20 1.805
428.30 1.803
428.40 1.801
428.50 1.799
428.60 1.797
428.70 1.795
428.80 1.793
428.90 1.791
429.00 1.789
429.10 1.787
429.20 1.785
429.30 1.783
429.40 1.781
429.50 1.778
429.60 1.776
429.70 1.774
429.80 1.772
429.90 1.769
430.00 1.767
430.10 1.764
430.20 1.762
430.30 1.759
430.40 1.757
430.50 1.754
430.60 1.751
430.70 1.748
430.80 1.745
430.90 1.742
431.00 1.739
431.10 1.735
431.20 1.732
431.30 1.728
431.40 1.724
431.50 1.72
431.60 1.716
431.70 1.712
431.80 1.707
431.90 1.702
432.00 1.697
432.10 1.691
432.20 1.685
432.30 1.679
432.40 1.673
432.50 1.666
432.60 1.658
432.70 1.651
432.80 1.642
432.90 1.634
433.00 1.625
433.10 1.615
433.20 1.604
433.30 1.593
433.40 1.582
433.50 1.57
433.60 1.557
433.70 1.542
433.80 1.527
433.90 1.51
434.00 1.496
434.10 1.495
434.20 1.508
434.30 1.521
434.40 1.534
434.50 1.546
434.60 1.556
434.70 1.565
434.80 1.574
434.90 1.582
435.00 1.59
435.10 1.597
435.20 1.603
435.30 1.609
435.40 1.614
435.50 1.619
435.60 1.623
435.70 1.627
435.80 1.63
435.90 1.633
436.00 1.636
436.10 1.639
436.20 1.641
436.30 1.643
436.40 1.644
436.50 1.645
436.60 1.647
436.70 1.647
436.80 1.648
436.90 1.649
437.00 1.649
437.10 1.649
437.20 1.65
437.30 1.65
437.40 1.65
437.50 1.649
437.60 1.649
437.70 1.649
437.80 1.648
437.90 1.648
438.00 1.647
438.10 1.647
438.20 1.646
438.30 1.645
438.40 1.644
438.50 1.644
438.60 1.643
438.70 1.642
438.80 1.641
438.90 1.64
439.00 1.639
439.10 1.638
439.20 1.637
439.30 1.636
439.40 1.635
439.50 1.634
439.60 1.633
439.70 1.631
439.80 1.63
439.90 1.629
440.00 1.628
440.10 1.627
440.20 1.626
440.30 1.624
440.40 1.623
440.50 1.622
440.60 1.621
440.70 1.619
440.80 1.618
440.90 1.617
441.00 1.616
441.10 1.614
441.20 1.613
441.30 1.612
441.40 1.611
441.50 1.609
441.60 1.608
441.70 1.607
441.80 1.605
441.90 1.604
442.00 1.603
442.10 1.602
442.20 1.6
442.30 1.599
442.40 1.598
442.50 1.596
442.60 1.595
442.70 1.594
442.80 1.592
442.90 1.591
443.00 1.59
443.10 1.588
443.20 1.587
443.30 1.586
443.40 1.585
443.50 1.583
443.60 1.582
443.70 1.581
443.80 1.579
443.90 1.578
444.00 1.577
444.10 1.575
444.20 1.574
444.30 1.573
444.40 1.571
444.50 1.57
444.60 1.569
444.70 1.567
444.80 1.566
444.90 1.565
445.00 1.563
445.10 1.562
445.20 1.561
445.30 1.559
445.40 1.558
445.50 1.557
445.60 1.556
445.70 1.554
445.80 1.553
445.90 1.552
446.00 1.55
446.10 1.549
446.20 1.548
446.30 1.546
446.40 1.545
446.50 1.544
446.60 1.542
446.70 1.541
446.80 1.54
446.90 1.538
447.00 1.537
447.10 1.536
447.20 1.535
447.30 1.533
447.40 1.532
447.50 1.531
447.60 1.529
447.70 1.528
447.80 1.527
447.90 1.526
448.00 1.524
448.10 1.523
448.20 1.522
448.30 1.52
448.40 1.519
448.50 1.518
448.60 1.516
448.70 1.515
448.80 1.514
448.90 1.513
449.00 1.511
449.10 1.51
449.20 1.509
449.30 1.508
449.40 1.506
449.50 1.505
449.60 1.504
449.70 1.502
449.80 1.501
449.90 1.5
450.00 1.499
450.10 1.497
450.20 1.496
450.30 1.495
450.40 1.494
450.50 1.492
450.60 1.491
450.70 1.49
450.80 1.488
450.90 1.487
451.00 1.486
451.10 1.485
451.20 1.483
451.30 1.482
451.40 1.481
451.50 1.48
451.60 1.478
451.70 1.477
451.80 1.476
451.90 1.475
452.00 1.473
452.10 1.472
452.20 1.471
452.30 1.47
452.40 1.468
452.50 1.467
452.60 1.466
452.70 1.465
452.80 1.464
452.90 1.462
453.00 1.461
453.10 1.46
453.20 1.459
453.30 1.457
453.40 1.456
453.50 1.455
453.60 1.454
453.70 1.452
453.80 1.451
453.90 1.45
454.00 1.449
454.10 1.448
