# Version 2.1 - nm, norm@500 to 1, cut digits, bergeron_90000_65.dat_90000
# Wavelength(nm)  Flambda(ergs/cm^s/s/nm)
300.00 6.747
300.10 6.739
300.20 6.73
300.30 6.722
300.40 6.714
300.50 6.705
300.60 6.697
300.70 6.689
300.80 6.68
300.90 6.672
301.00 6.664
301.10 6.655
301.20 6.647
301.30 6.639
301.40 6.631
301.50 6.622
301.60 6.614
301.70 6.606
301.80 6.598
301.90 6.589
302.00 6.581
302.10 6.573
302.20 6.565
302.30 6.557
302.40 6.549
302.50 6.541
302.60 6.533
302.70 6.524
302.80 6.516
302.90 6.508
303.00 6.5
303.10 6.492
303.20 6.484
303.30 6.476
303.40 6.468
303.50 6.46
303.60 6.452
303.70 6.444
303.80 6.436
303.90 6.428
304.00 6.42
304.10 6.413
304.20 6.405
304.30 6.397
304.40 6.389
304.50 6.381
304.60 6.373
304.70 6.365
304.80 6.358
304.90 6.35
305.00 6.342
305.10 6.334
305.20 6.326
305.30 6.319
305.40 6.311
305.50 6.303
305.60 6.295
305.70 6.288
305.80 6.28
305.90 6.272
306.00 6.265
306.10 6.257
306.20 6.249
306.30 6.242
306.40 6.234
306.50 6.226
306.60 6.219
306.70 6.211
306.80 6.204
306.90 6.196
307.00 6.188
307.10 6.181
307.20 6.173
307.30 6.166
307.40 6.158
307.50 6.151
307.60 6.143
307.70 6.136
307.80 6.128
307.90 6.121
308.00 6.113
308.10 6.106
308.20 6.098
308.30 6.091
308.40 6.084
308.50 6.076
308.60 6.069
308.70 6.061
308.80 6.054
308.90 6.047
309.00 6.039
309.10 6.032
309.20 6.025
309.30 6.017
309.40 6.01
309.50 6.003
309.60 5.996
309.70 5.988
309.80 5.981
309.90 5.974
310.00 5.967
310.10 5.959
310.20 5.952
310.30 5.945
310.40 5.938
310.50 5.931
310.60 5.924
310.70 5.916
310.80 5.909
310.90 5.902
311.00 5.895
311.10 5.888
311.20 5.881
311.30 5.874
311.40 5.867
311.50 5.859
311.60 5.852
311.70 5.845
311.80 5.838
311.90 5.831
312.00 5.824
312.10 5.817
312.20 5.81
312.30 5.803
312.40 5.796
312.50 5.789
312.60 5.782
312.70 5.776
312.80 5.769
312.90 5.762
313.00 5.755
313.10 5.748
313.20 5.741
313.30 5.734
313.40 5.727
313.50 5.72
313.60 5.714
313.70 5.707
313.80 5.7
313.90 5.693
314.00 5.686
314.10 5.679
314.20 5.673
314.30 5.666
314.40 5.659
314.50 5.652
314.60 5.646
314.70 5.639
314.80 5.632
314.90 5.625
315.00 5.619
315.10 5.612
315.20 5.605
315.30 5.599
315.40 5.592
315.50 5.585
315.60 5.579
315.70 5.572
315.80 5.565
315.90 5.559
316.00 5.552
316.10 5.546
316.20 5.539
316.30 5.533
316.40 5.526
316.50 5.519
316.60 5.513
316.70 5.506
316.80 5.5
316.90 5.493
317.00 5.487
317.10 5.48
317.20 5.474
317.30 5.467
317.40 5.461
317.50 5.454
317.60 5.448
317.70 5.441
317.80 5.435
317.90 5.429
318.00 5.422
318.10 5.416
318.20 5.409
318.30 5.403
318.40 5.397
318.50 5.39
318.60 5.384
318.70 5.378
318.80 5.371
318.90 5.365
319.00 5.359
319.10 5.352
319.20 5.346
319.30 5.34
319.40 5.333
319.50 5.327
319.60 5.321
319.70 5.315
319.80 5.308
319.90 5.302
320.00 5.296
320.10 5.29
320.20 5.284
320.30 5.277
320.40 5.271
320.50 5.265
320.60 5.259
320.70 5.253
320.80 5.246
320.90 5.24
321.00 5.234
321.10 5.228
321.20 5.222
321.30 5.216
321.40 5.21
321.50 5.204
321.60 5.198
321.70 5.191
321.80 5.185
321.90 5.179
322.00 5.173
322.10 5.167
322.20 5.161
322.30 5.155
322.40 5.149
322.50 5.143
322.60 5.137
322.70 5.131
322.80 5.125
322.90 5.119
323.00 5.113
323.10 5.107
323.20 5.101
323.30 5.096
323.40 5.09
323.50 5.084
323.60 5.078
323.70 5.072
323.80 5.066
323.90 5.06
324.00 5.054
324.10 5.048
324.20 5.043
324.30 5.037
324.40 5.031
324.50 5.025
324.60 5.019
324.70 5.013
324.80 5.008
324.90 5.002
325.00 4.996
325.10 4.99
325.20 4.984
325.30 4.979
325.40 4.973
325.50 4.967
325.60 4.961
325.70 4.956
325.80 4.95
325.90 4.944
326.00 4.939
326.10 4.933
326.20 4.927
326.30 4.922
326.40 4.916
326.50 4.91
326.60 4.905
326.70 4.899
326.80 4.893
326.90 4.888
327.00 4.882
327.10 4.876
327.20 4.871
327.30 4.865
327.40 4.86
327.50 4.854
327.60 4.848
327.70 4.843
327.80 4.837
327.90 4.832
328.00 4.826
328.10 4.821
328.20 4.815
328.30 4.81
328.40 4.804
328.50 4.799
328.60 4.793
328.70 4.788
328.80 4.782
328.90 4.777
329.00 4.771
329.10 4.766
329.20 4.76
329.30 4.755
329.40 4.749
329.50 4.744
329.60 4.739
329.70 4.733
329.80 4.728
329.90 4.722
330.00 4.717
330.10 4.712
330.20 4.706
330.30 4.701
330.40 4.696
330.50 4.69
330.60 4.685
330.70 4.68
330.80 4.674
330.90 4.669
331.00 4.664
331.10 4.658
331.20 4.653
331.30 4.648
331.40 4.643
331.50 4.637
331.60 4.632
331.70 4.627
331.80 4.621
331.90 4.616
332.00 4.611
332.10 4.606
332.20 4.601
332.30 4.595
332.40 4.59
332.50 4.585
332.60 4.58
332.70 4.575
332.80 4.569
332.90 4.564
333.00 4.559
333.10 4.554
333.20 4.549
333.30 4.544
333.40 4.538
333.50 4.533
333.60 4.528
333.70 4.523
333.80 4.518
333.90 4.513
334.00 4.508
334.10 4.503
334.20 4.498
334.30 4.493
334.40 4.488
334.50 4.483
334.60 4.477
334.70 4.472
334.80 4.467
334.90 4.462
335.00 4.457
335.10 4.452
335.20 4.447
335.30 4.442
335.40 4.437
335.50 4.432
335.60 4.427
335.70 4.422
335.80 4.417
335.90 4.412
336.00 4.407
336.10 4.403
336.20 4.398
336.30 4.393
336.40 4.388
336.50 4.383
336.60 4.378
336.70 4.373
336.80 4.368
336.90 4.363
337.00 4.359
337.10 4.354
337.20 4.349
337.30 4.344
337.40 4.339
337.50 4.334
337.60 4.329
337.70 4.325
337.80 4.32
337.90 4.315
338.00 4.31
338.10 4.305
338.20 4.3
338.30 4.296
338.40 4.291
338.50 4.286
338.60 4.281
338.70 4.277
338.80 4.272
338.90 4.267
339.00 4.262
339.10 4.258
339.20 4.253
339.30 4.248
339.40 4.243
339.50 4.239
339.60 4.234
339.70 4.229
339.80 4.225
339.90 4.22
340.00 4.215
340.10 4.211
340.20 4.206
340.30 4.201
340.40 4.197
340.50 4.192
340.60 4.187
340.70 4.183
340.80 4.178
340.90 4.173
341.00 4.169
341.10 4.164
341.20 4.16
341.30 4.155
341.40 4.15
341.50 4.146
341.60 4.141
341.70 4.137
341.80 4.132
341.90 4.128
342.00 4.123
342.10 4.118
342.20 4.114
342.30 4.109
342.40 4.105
342.50 4.1
342.60 4.096
342.70 4.091
342.80 4.087
342.90 4.082
343.00 4.078
343.10 4.073
343.20 4.069
343.30 4.064
343.40 4.06
343.50 4.056
343.60 4.051
343.70 4.047
343.80 4.042
343.90 4.038
344.00 4.033
344.10 4.029
344.20 4.025
344.30 4.02
344.40 4.016
344.50 4.011
344.60 4.007
344.70 4.003
344.80 3.998
344.90 3.994
345.00 3.989
345.10 3.985
345.20 3.981
345.30 3.976
345.40 3.972
345.50 3.968
345.60 3.963
345.70 3.959
345.80 3.955
345.90 3.95
346.00 3.946
346.10 3.942
346.20 3.937
346.30 3.933
346.40 3.929
346.50 3.925
346.60 3.92
346.70 3.916
346.80 3.912
346.90 3.908
347.00 3.903
347.10 3.899
347.20 3.895
347.30 3.891
347.40 3.886
347.50 3.882
347.60 3.878
347.70 3.874
347.80 3.87
347.90 3.865
348.00 3.861
348.10 3.857
348.20 3.853
348.30 3.849
348.40 3.844
348.50 3.84
348.60 3.836
348.70 3.832
348.80 3.828
348.90 3.824
349.00 3.82
349.10 3.815
349.20 3.811
349.30 3.807
349.40 3.803
349.50 3.799
349.60 3.795
349.70 3.791
349.80 3.787
349.90 3.783
350.00 3.778
350.10 3.774
350.20 3.77
350.30 3.766
350.40 3.762
350.50 3.758
350.60 3.754
350.70 3.75
350.80 3.746
350.90 3.742
351.00 3.738
351.10 3.734
351.20 3.73
351.30 3.726
351.40 3.722
351.50 3.718
351.60 3.714
351.70 3.71
351.80 3.706
351.90 3.702
352.00 3.698
352.10 3.694
352.20 3.69
352.30 3.686
352.40 3.682
352.50 3.678
352.60 3.674
352.70 3.67
352.80 3.667
352.90 3.663
353.00 3.659
353.10 3.655
353.20 3.651
353.30 3.647
353.40 3.643
353.50 3.639
353.60 3.635
353.70 3.631
353.80 3.627
353.90 3.624
354.00 3.62
354.10 3.616
354.20 3.612
354.30 3.608
354.40 3.604
354.50 3.601
354.60 3.597
354.70 3.593
354.80 3.589
354.90 3.585
355.00 3.581
355.10 3.578
355.20 3.574
355.30 3.57
355.40 3.566
355.50 3.562
355.60 3.559
355.70 3.555
355.80 3.551
355.90 3.547
356.00 3.544
356.10 3.54
356.20 3.536
356.30 3.532
356.40 3.529
356.50 3.525
356.60 3.521
356.70 3.517
356.80 3.514
356.90 3.51
357.00 3.506
357.10 3.502
357.20 3.499
357.30 3.495
357.40 3.491
357.50 3.488
357.60 3.484
357.70 3.48
357.80 3.477
357.90 3.473
358.00 3.469
358.10 3.466
358.20 3.462
358.30 3.458
358.40 3.455
358.50 3.451
358.60 3.447
358.70 3.444
358.80 3.44
358.90 3.437
359.00 3.433
359.10 3.429
359.20 3.426
359.30 3.422
359.40 3.418
359.50 3.415
359.60 3.411
359.70 3.408
359.80 3.404
359.90 3.401
360.00 3.397
360.10 3.393
360.20 3.39
360.30 3.386
360.40 3.383
360.50 3.379
360.60 3.376
360.70 3.372
360.80 3.369
360.90 3.365
361.00 3.362
361.10 3.358
361.20 3.355
361.30 3.351
361.40 3.347
361.50 3.344
361.60 3.34
361.70 3.337
361.80 3.333
361.90 3.33
362.00 3.327
362.10 3.323
362.20 3.32
362.30 3.316
362.40 3.313
362.50 3.309
362.60 3.306
362.70 3.302
362.80 3.299
362.90 3.295
363.00 3.292
363.10 3.289
363.20 3.285
363.30 3.282
363.40 3.278
363.50 3.275
363.60 3.272
363.70 3.268
363.80 3.265
363.90 3.261
364.00 3.258
364.10 3.255
364.20 3.251
364.30 3.248
364.40 3.244
364.50 3.241
364.60 3.238
364.70 3.234
364.80 3.231
364.90 3.228
365.00 3.224
365.10 3.221
365.20 3.218
365.30 3.214
365.40 3.211
365.50 3.208
365.60 3.204
365.70 3.201
365.80 3.198
365.90 3.194
366.00 3.191
366.10 3.188
366.20 3.184
366.30 3.181
366.40 3.178
366.50 3.174
366.60 3.171
366.70 3.168
366.80 3.164
366.90 3.161
367.00 3.158
367.10 3.154
367.20 3.151
367.30 3.148
367.40 3.144
367.50 3.141
367.60 3.138
367.70 3.134
367.80 3.131
367.90 3.128
368.00 3.124
368.10 3.121
368.20 3.118
368.30 3.115
368.40 3.111
368.50 3.108
368.60 3.105
368.70 3.102
368.80 3.098
368.90 3.095
369.00 3.092
369.10 3.089
369.20 3.085
369.30 3.082
369.40 3.079
369.50 3.076
369.60 3.073
369.70 3.069
369.80 3.066
369.90 3.063
370.00 3.06
370.10 3.057
370.20 3.053
370.30 3.05
370.40 3.047
370.50 3.044
370.60 3.041
370.70 3.038
370.80 3.034
370.90 3.031
371.00 3.028
371.10 3.025
371.20 3.022
371.30 3.019
371.40 3.016
371.50 3.012
371.60 3.009
371.70 3.006
371.80 3.003
371.90 3
372.00 2.997
372.10 2.994
372.20 2.991
372.30 2.988
372.40 2.985
372.50 2.982
372.60 2.979
372.70 2.976
372.80 2.973
372.90 2.97
373.00 2.967
373.10 2.964
373.20 2.961
373.30 2.958
373.40 2.955
373.50 2.952
373.60 2.949
373.70 2.946
373.80 2.943
373.90 2.94
374.00 2.937
374.10 2.934
374.20 2.931
374.30 2.929
374.40 2.926
374.50 2.923
374.60 2.92
374.70 2.917
374.80 2.914
374.90 2.912
375.00 2.909
375.10 2.906
375.20 2.903
375.30 2.9
375.40 2.898
375.50 2.895
375.60 2.892
375.70 2.889
375.80 2.886
375.90 2.884
376.00 2.881
376.10 2.878
376.20 2.874
376.30 2.871
376.40 2.868
376.50 2.865
376.60 2.862
376.70 2.859
376.80 2.856
376.90 2.853
377.00 2.849
377.10 2.847
377.20 2.845
377.30 2.843
377.40 2.841
377.50 2.838
377.60 2.836
377.70 2.834
377.80 2.832
377.90 2.83
378.00 2.827
378.10 2.824
378.20 2.821
378.30 2.818
378.40 2.815
378.50 2.812
378.60 2.809
378.70 2.806
378.80 2.803
378.90 2.8
379.00 2.797
379.10 2.793
379.20 2.79
379.30 2.787
379.40 2.783
379.50 2.78
379.60 2.777
379.70 2.773
379.80 2.77
379.90 2.767
380.00 2.763
380.10 2.762
380.20 2.761
380.30 2.76
380.40 2.759
380.50 2.758
380.60 2.756
380.70 2.755
380.80 2.754
380.90 2.753
381.00 2.752
381.10 2.749
381.20 2.747
381.30 2.745
381.40 2.742
381.50 2.74
381.60 2.737
381.70 2.734
381.80 2.731
381.90 2.727
382.00 2.724
382.10 2.72
382.20 2.715
382.30 2.71
382.40 2.705
382.50 2.699
382.60 2.694
382.70 2.688
382.80 2.683
382.90 2.677
383.00 2.672
383.10 2.666
383.20 2.661
383.30 2.654
383.40 2.648
383.50 2.643
383.60 2.641
383.70 2.642
383.80 2.644
383.90 2.646
384.00 2.648
384.10 2.65
384.20 2.651
384.30 2.652
384.40 2.653
384.50 2.654
384.60 2.654
384.70 2.655
384.80 2.655
384.90 2.654
385.00 2.654
385.10 2.653
385.20 2.652
385.30 2.651
385.40 2.65
385.50 2.649
385.60 2.647
385.70 2.645
385.80 2.643
385.90 2.641
386.00 2.639
386.10 2.636
386.20 2.633
386.30 2.63
386.40 2.627
386.50 2.624
386.60 2.62
386.70 2.616
386.80 2.612
386.90 2.608
387.00 2.603
387.10 2.599
387.20 2.593
387.30 2.588
387.40 2.582
387.50 2.576
387.60 2.57
387.70 2.563
387.80 2.556
387.90 2.548
388.00 2.54
388.10 2.531
388.20 2.522
388.30 2.513
388.40 2.503
388.50 2.492
388.60 2.481
388.70 2.471
388.80 2.463
388.90 2.457
389.00 2.458
389.10 2.461
389.20 2.467
389.30 2.473
389.40 2.479
389.50 2.485
389.60 2.49
389.70 2.494
389.80 2.499
389.90 2.502
390.00 2.505
390.10 2.508
390.20 2.51
390.30 2.512
390.40 2.514
390.50 2.515
390.60 2.516
390.70 2.517
390.80 2.518
390.90 2.518
391.00 2.518
391.10 2.518
391.20 2.517
391.30 2.517
391.40 2.516
391.50 2.515
391.60 2.514
391.70 2.513
391.80 2.512
391.90 2.511
392.00 2.509
392.10 2.507
392.20 2.506
392.30 2.504
392.40 2.502
392.50 2.5
392.60 2.498
392.70 2.496
392.80 2.493
392.90 2.491
393.00 2.489
393.10 2.486
393.20 2.484
393.30 2.481
393.40 2.478
393.50 2.475
393.60 2.472
393.70 2.469
393.80 2.466
393.90 2.462
394.00 2.459
394.10 2.455
394.20 2.451
394.30 2.448
394.40 2.443
394.50 2.439
394.60 2.435
394.70 2.43
394.80 2.425
394.90 2.42
395.00 2.414
395.10 2.408
395.20 2.402
395.30 2.395
395.40 2.388
395.50 2.381
395.60 2.373
395.70 2.364
395.80 2.356
395.90 2.346
396.00 2.335
396.10 2.324
396.20 2.312
396.30 2.3
396.40 2.286
396.50 2.271
396.60 2.255
396.70 2.239
396.80 2.22
396.90 2.201
397.00 2.182
397.10 2.195
397.20 2.209
397.30 2.224
397.40 2.237
397.50 2.249
397.60 2.26
397.70 2.269
397.80 2.277
397.90 2.285
398.00 2.292
398.10 2.298
398.20 2.303
398.30 2.308
398.40 2.312
398.50 2.315
398.60 2.318
398.70 2.321
398.80 2.323
398.90 2.325
399.00 2.326
399.10 2.327
399.20 2.328
399.30 2.329
399.40 2.329
399.50 2.329
399.60 2.329
399.70 2.329
399.80 2.328
399.90 2.328
400.00 2.327
400.10 2.326
400.20 2.325
400.30 2.324
400.40 2.323
400.50 2.322
400.60 2.321
400.70 2.319
400.80 2.318
400.90 2.316
401.00 2.315
401.10 2.313
401.20 2.312
401.30 2.31
401.40 2.308
401.50 2.306
401.60 2.305
401.70 2.303
401.80 2.301
401.90 2.299
402.00 2.297
402.10 2.295
402.20 2.293
402.30 2.291
402.40 2.289
402.50 2.287
402.60 2.285
402.70 2.283
402.80 2.281
402.90 2.279
403.00 2.277
403.10 2.275
403.20 2.273
403.30 2.271
403.40 2.269
403.50 2.267
403.60 2.265
403.70 2.262
403.80 2.26
403.90 2.258
404.00 2.256
404.10 2.254
404.20 2.252
404.30 2.249
404.40 2.247
404.50 2.245
404.60 2.243
404.70 2.24
404.80 2.238
404.90 2.236
405.00 2.233
405.10 2.231
405.20 2.229
405.30 2.226
405.40 2.224
405.50 2.221
405.60 2.219
405.70 2.217
405.80 2.214
405.90 2.211
406.00 2.209
406.10 2.206
406.20 2.204
406.30 2.201
406.40 2.198
406.50 2.195
406.60 2.192
406.70 2.189
406.80 2.186
406.90 2.183
407.00 2.18
407.10 2.176
407.20 2.173
407.30 2.169
407.40 2.165
407.50 2.162
407.60 2.157
407.70 2.153
407.80 2.149
407.90 2.144
408.00 2.139
408.10 2.133
408.20 2.128
408.30 2.121
408.40 2.115
408.50 2.108
408.60 2.1
408.70 2.092
408.80 2.083
408.90 2.074
409.00 2.064
409.10 2.053
409.20 2.041
409.30 2.028
409.40 2.014
409.50 1.998
409.60 1.982
409.70 1.962
409.80 1.941
409.90 1.917
410.00 1.888
410.10 1.869
410.20 1.859
410.30 1.875
410.40 1.895
410.50 1.919
410.60 1.938
410.70 1.954
410.80 1.969
410.90 1.981
411.00 1.992
411.10 2.002
411.20 2.01
411.30 2.017
411.40 2.024
411.50 2.03
411.60 2.035
411.70 2.04
411.80 2.043
411.90 2.047
412.00 2.049
412.10 2.052
412.20 2.053
412.30 2.055
412.40 2.056
412.50 2.057
412.60 2.058
412.70 2.058
412.80 2.058
412.90 2.058
413.00 2.058
413.10 2.058
413.20 2.057
413.30 2.057
413.40 2.056
413.50 2.055
413.60 2.054
413.70 2.053
413.80 2.052
413.90 2.051
414.00 2.05
414.10 2.049
414.20 2.048
414.30 2.046
414.40 2.045
414.50 2.044
414.60 2.042
414.70 2.041
414.80 2.039
414.90 2.038
415.00 2.036
415.10 2.035
415.20 2.033
415.30 2.031
415.40 2.03
415.50 2.028
415.60 2.027
415.70 2.025
415.80 2.023
415.90 2.022
416.00 2.02
416.10 2.018
416.20 2.017
416.30 2.015
416.40 2.013
416.50 2.011
416.60 2.01
416.70 2.008
416.80 2.006
416.90 2.005
417.00 2.003
417.10 2.001
417.20 1.999
417.30 1.998
417.40 1.996
417.50 1.994
417.60 1.992
417.70 1.991
417.80 1.989
417.90 1.987
418.00 1.985
418.10 1.984
418.20 1.982
418.30 1.98
418.40 1.978
418.50 1.977
418.60 1.975
418.70 1.973
418.80 1.971
418.90 1.969
419.00 1.968
419.10 1.966
419.20 1.964
419.30 1.962
419.40 1.961
419.50 1.959
419.60 1.957
419.70 1.955
419.80 1.954
419.90 1.952
420.00 1.95
420.10 1.948
420.20 1.947
420.30 1.945
420.40 1.943
420.50 1.941
420.60 1.94
420.70 1.938
420.80 1.936
420.90 1.934
421.00 1.933
421.10 1.931
421.20 1.929
421.30 1.927
421.40 1.926
421.50 1.924
421.60 1.922
421.70 1.92
421.80 1.919
421.90 1.917
422.00 1.915
422.10 1.914
422.20 1.912
422.30 1.91
422.40 1.908
422.50 1.907
422.60 1.905
422.70 1.903
422.80 1.901
422.90 1.9
423.00 1.898
423.10 1.896
423.20 1.895
423.30 1.893
423.40 1.891
423.50 1.889
423.60 1.888
423.70 1.886
423.80 1.884
423.90 1.882
424.00 1.881
424.10 1.879
424.20 1.877
424.30 1.876
424.40 1.874
424.50 1.872
424.60 1.87
424.70 1.869
424.80 1.867
424.90 1.865
425.00 1.864
425.10 1.862
425.20 1.86
425.30 1.859
425.40 1.857
425.50 1.855
425.60 1.853
425.70 1.852
425.80 1.85
425.90 1.848
426.00 1.847
426.10 1.845
426.20 1.843
426.30 1.841
426.40 1.84
426.50 1.838
426.60 1.836
426.70 1.835
426.80 1.833
426.90 1.831
427.00 1.829
427.10 1.828
427.20 1.826
427.30 1.824
427.40 1.823
427.50 1.821
427.60 1.819
427.70 1.817
427.80 1.816
427.90 1.814
428.00 1.812
428.10 1.81
428.20 1.809
428.30 1.807
428.40 1.805
428.50 1.803
428.60 1.801
428.70 1.8
428.80 1.798
428.90 1.796
429.00 1.794
429.10 1.792
429.20 1.79
429.30 1.789
429.40 1.787
429.50 1.785
429.60 1.783
429.70 1.781
429.80 1.779
429.90 1.777
430.00 1.775
430.10 1.773
430.20 1.77
430.30 1.768
430.40 1.766
430.50 1.764
430.60 1.762
430.70 1.759
430.80 1.757
430.90 1.754
431.00 1.751
431.10 1.749
431.20 1.746
431.30 1.743
431.40 1.74
431.50 1.737
431.60 1.733
431.70 1.729
431.80 1.726
431.90 1.721
432.00 1.717
432.10 1.712
432.20 1.707
432.30 1.702
432.40 1.696
432.50 1.689
432.60 1.682
432.70 1.675
432.80 1.666
432.90 1.657
433.00 1.648
433.10 1.636
433.20 1.624
433.30 1.611
433.40 1.596
433.50 1.579
433.60 1.56
433.70 1.537
433.80 1.508
433.90 1.473
434.00 1.44
434.10 1.44
434.20 1.473
434.30 1.503
434.40 1.529
434.50 1.55
434.60 1.565
434.70 1.579
434.80 1.592
434.90 1.602
435.00 1.611
435.10 1.619
435.20 1.626
435.30 1.632
435.40 1.637
435.50 1.641
435.60 1.645
435.70 1.649
435.80 1.652
435.90 1.654
436.00 1.656
436.10 1.657
436.20 1.659
436.30 1.66
436.40 1.66
436.50 1.661
436.60 1.661
436.70 1.662
436.80 1.662
436.90 1.661
437.00 1.661
437.10 1.661
437.20 1.66
437.30 1.66
437.40 1.659
437.50 1.658
437.60 1.658
437.70 1.657
437.80 1.656
437.90 1.655
438.00 1.654
438.10 1.653
438.20 1.652
438.30 1.651
438.40 1.65
438.50 1.649
438.60 1.648
438.70 1.647
438.80 1.646
438.90 1.644
439.00 1.643
439.10 1.642
439.20 1.641
439.30 1.639
439.40 1.638
439.50 1.637
439.60 1.636
439.70 1.634
439.80 1.633
439.90 1.632
440.00 1.631
440.10 1.629
440.20 1.628
440.30 1.627
440.40 1.625
440.50 1.624
440.60 1.623
440.70 1.621
440.80 1.62
440.90 1.619
441.00 1.617
441.10 1.616
441.20 1.615
441.30 1.613
441.40 1.612
441.50 1.611
441.60 1.609
441.70 1.608
441.80 1.607
441.90 1.605
442.00 1.604
442.10 1.603
442.20 1.601
442.30 1.6
442.40 1.599
442.50 1.597
442.60 1.596
442.70 1.595
442.80 1.593
442.90 1.592
443.00 1.591
443.10 1.589
443.20 1.588
443.30 1.587
443.40 1.585
443.50 1.584
443.60 1.583
443.70 1.581
443.80 1.58
443.90 1.579
444.00 1.577
444.10 1.576
444.20 1.574
444.30 1.573
444.40 1.572
444.50 1.57
444.60 1.569
444.70 1.568
444.80 1.566
444.90 1.565
445.00 1.564
445.10 1.562
445.20 1.561
445.30 1.56
445.40 1.558
445.50 1.557
445.60 1.556
445.70 1.554
445.80 1.553
445.90 1.552
446.00 1.551
446.10 1.549
446.20 1.548
446.30 1.547
446.40 1.545
446.50 1.544
446.60 1.543
446.70 1.541
446.80 1.54
446.90 1.539
447.00 1.537
447.10 1.536
447.20 1.535
447.30 1.533
447.40 1.532
447.50 1.531
447.60 1.53
447.70 1.528
447.80 1.527
447.90 1.526
448.00 1.524
448.10 1.523
448.20 1.522
448.30 1.52
448.40 1.519
448.50 1.518
448.60 1.517
448.70 1.515
448.80 1.514
448.90 1.513
449.00 1.511
449.10 1.51
449.20 1.509
449.30 1.508
449.40 1.506
449.50 1.505
449.60 1.504
449.70 1.502
449.80 1.501
449.90 1.5
450.00 1.499
450.10 1.497
450.20 1.496
450.30 1.495
450.40 1.494
450.50 1.492
450.60 1.491
450.70 1.49
450.80 1.488
450.90 1.487
451.00 1.486
451.10 1.485
451.20 1.483
451.30 1.482
451.40 1.481
451.50 1.48
451.60 1.478
451.70 1.477
451.80 1.476
451.90 1.475
452.00 1.473
452.10 1.472
452.20 1.471
452.30 1.47
452.40 1.468
452.50 1.467
452.60 1.466
452.70 1.465
452.80 1.463
452.90 1.462
453.00 1.461
453.10 1.46
453.20 1.459
453.30 1.457
453.40 1.456
453.50 1.455
453.60 1.454
453.70 1.452
453.80 1.451
453.90 1.45
454.00 1.449
