# Version 2.1 - nm, norm@500 to 1, cut digits, bergeron_85000_80.dat_85000
# Wavelength(nm)  Flambda(ergs/cm^s/s/nm)
300.00 6.716
300.10 6.708
300.20 6.699
300.30 6.691
300.40 6.683
300.50 6.674
300.60 6.666
300.70 6.658
300.80 6.649
300.90 6.641
301.00 6.633
301.10 6.625
301.20 6.616
301.30 6.608
301.40 6.6
301.50 6.592
301.60 6.584
301.70 6.576
301.80 6.567
301.90 6.559
302.00 6.551
302.10 6.543
302.20 6.535
302.30 6.527
302.40 6.519
302.50 6.511
302.60 6.503
302.70 6.495
302.80 6.487
302.90 6.479
303.00 6.471
303.10 6.463
303.20 6.455
303.30 6.447
303.40 6.439
303.50 6.431
303.60 6.423
303.70 6.415
303.80 6.407
303.90 6.399
304.00 6.391
304.10 6.384
304.20 6.376
304.30 6.368
304.40 6.36
304.50 6.352
304.60 6.344
304.70 6.337
304.80 6.329
304.90 6.321
305.00 6.313
305.10 6.306
305.20 6.298
305.30 6.29
305.40 6.282
305.50 6.275
305.60 6.267
305.70 6.259
305.80 6.252
305.90 6.244
306.00 6.236
306.10 6.229
306.20 6.221
306.30 6.214
306.40 6.206
306.50 6.198
306.60 6.191
306.70 6.183
306.80 6.176
306.90 6.168
307.00 6.161
307.10 6.153
307.20 6.146
307.30 6.138
307.40 6.131
307.50 6.123
307.60 6.116
307.70 6.108
307.80 6.101
307.90 6.094
308.00 6.086
308.10 6.079
308.20 6.071
308.30 6.064
308.40 6.057
308.50 6.049
308.60 6.042
308.70 6.035
308.80 6.027
308.90 6.02
309.00 6.013
309.10 6.005
309.20 5.998
309.30 5.991
309.40 5.984
309.50 5.976
309.60 5.969
309.70 5.962
309.80 5.955
309.90 5.948
310.00 5.94
310.10 5.933
310.20 5.926
310.30 5.919
310.40 5.912
310.50 5.905
310.60 5.898
310.70 5.89
310.80 5.883
310.90 5.876
311.00 5.869
311.10 5.862
311.20 5.855
311.30 5.848
311.40 5.841
311.50 5.834
311.60 5.827
311.70 5.82
311.80 5.813
311.90 5.806
312.00 5.799
312.10 5.792
312.20 5.785
312.30 5.778
312.40 5.771
312.50 5.764
312.60 5.757
312.70 5.751
312.80 5.744
312.90 5.737
313.00 5.73
313.10 5.723
313.20 5.716
313.30 5.709
313.40 5.703
313.50 5.696
313.60 5.689
313.70 5.682
313.80 5.675
313.90 5.669
314.00 5.662
314.10 5.655
314.20 5.648
314.30 5.642
314.40 5.635
314.50 5.628
314.60 5.621
314.70 5.615
314.80 5.608
314.90 5.601
315.00 5.595
315.10 5.588
315.20 5.581
315.30 5.575
315.40 5.568
315.50 5.562
315.60 5.555
315.70 5.548
315.80 5.542
315.90 5.535
316.00 5.529
316.10 5.522
316.20 5.516
316.30 5.509
316.40 5.502
316.50 5.496
316.60 5.489
316.70 5.483
316.80 5.476
316.90 5.47
317.00 5.464
317.10 5.457
317.20 5.451
317.30 5.444
317.40 5.438
317.50 5.431
317.60 5.425
317.70 5.419
317.80 5.412
317.90 5.406
318.00 5.399
318.10 5.393
318.20 5.387
318.30 5.38
318.40 5.374
318.50 5.368
318.60 5.361
318.70 5.355
318.80 5.349
318.90 5.342
319.00 5.336
319.10 5.33
319.20 5.324
319.30 5.317
319.40 5.311
319.50 5.305
319.60 5.299
319.70 5.293
319.80 5.286
319.90 5.28
320.00 5.274
320.10 5.268
320.20 5.262
320.30 5.255
320.40 5.249
320.50 5.243
320.60 5.237
320.70 5.231
320.80 5.225
320.90 5.219
321.00 5.213
321.10 5.206
321.20 5.2
321.30 5.194
321.40 5.188
321.50 5.182
321.60 5.176
321.70 5.17
321.80 5.164
321.90 5.158
322.00 5.152
322.10 5.146
322.20 5.14
322.30 5.134
322.40 5.128
322.50 5.122
322.60 5.116
322.70 5.11
322.80 5.104
322.90 5.098
323.00 5.092
323.10 5.087
323.20 5.081
323.30 5.075
323.40 5.069
323.50 5.063
323.60 5.057
323.70 5.051
323.80 5.045
323.90 5.04
324.00 5.034
324.10 5.028
324.20 5.022
324.30 5.016
324.40 5.01
324.50 5.005
324.60 4.999
324.70 4.993
324.80 4.987
324.90 4.982
325.00 4.976
325.10 4.97
325.20 4.964
325.30 4.959
325.40 4.953
325.50 4.947
325.60 4.942
325.70 4.936
325.80 4.93
325.90 4.924
326.00 4.919
326.10 4.913
326.20 4.907
326.30 4.902
326.40 4.896
326.50 4.891
326.60 4.885
326.70 4.879
326.80 4.874
326.90 4.868
327.00 4.863
327.10 4.857
327.20 4.851
327.30 4.846
327.40 4.84
327.50 4.835
327.60 4.829
327.70 4.824
327.80 4.818
327.90 4.813
328.00 4.807
328.10 4.802
328.20 4.796
328.30 4.791
328.40 4.785
328.50 4.78
328.60 4.774
328.70 4.769
328.80 4.763
328.90 4.758
329.00 4.752
329.10 4.747
329.20 4.742
329.30 4.736
329.40 4.731
329.50 4.725
329.60 4.72
329.70 4.715
329.80 4.709
329.90 4.704
330.00 4.699
330.10 4.693
330.20 4.688
330.30 4.683
330.40 4.677
330.50 4.672
330.60 4.667
330.70 4.661
330.80 4.656
330.90 4.651
331.00 4.646
331.10 4.64
331.20 4.635
331.30 4.63
331.40 4.625
331.50 4.619
331.60 4.614
331.70 4.609
331.80 4.604
331.90 4.598
332.00 4.593
332.10 4.588
332.20 4.583
332.30 4.578
332.40 4.572
332.50 4.567
332.60 4.562
332.70 4.557
332.80 4.552
332.90 4.547
333.00 4.542
333.10 4.537
333.20 4.531
333.30 4.526
333.40 4.521
333.50 4.516
333.60 4.511
333.70 4.506
333.80 4.501
333.90 4.496
334.00 4.491
334.10 4.486
334.20 4.481
334.30 4.476
334.40 4.471
334.50 4.466
334.60 4.461
334.70 4.456
334.80 4.451
334.90 4.446
335.00 4.441
335.10 4.436
335.20 4.431
335.30 4.426
335.40 4.421
335.50 4.416
335.60 4.411
335.70 4.406
335.80 4.401
335.90 4.396
336.00 4.391
336.10 4.386
336.20 4.381
336.30 4.376
336.40 4.371
336.50 4.367
336.60 4.362
336.70 4.357
336.80 4.352
336.90 4.347
337.00 4.342
337.10 4.337
337.20 4.333
337.30 4.328
337.40 4.323
337.50 4.318
337.60 4.313
337.70 4.308
337.80 4.304
337.90 4.299
338.00 4.294
338.10 4.289
338.20 4.285
338.30 4.28
338.40 4.275
338.50 4.27
338.60 4.266
338.70 4.261
338.80 4.256
338.90 4.251
339.00 4.247
339.10 4.242
339.20 4.237
339.30 4.233
339.40 4.228
339.50 4.223
339.60 4.219
339.70 4.214
339.80 4.209
339.90 4.205
340.00 4.2
340.10 4.195
340.20 4.191
340.30 4.186
340.40 4.181
340.50 4.177
340.60 4.172
340.70 4.168
340.80 4.163
340.90 4.158
341.00 4.154
341.10 4.149
341.20 4.145
341.30 4.14
341.40 4.136
341.50 4.131
341.60 4.126
341.70 4.122
341.80 4.117
341.90 4.113
342.00 4.108
342.10 4.104
342.20 4.099
342.30 4.095
342.40 4.09
342.50 4.086
342.60 4.081
342.70 4.077
342.80 4.072
342.90 4.068
343.00 4.063
343.10 4.059
343.20 4.054
343.30 4.05
343.40 4.046
343.50 4.041
343.60 4.037
343.70 4.032
343.80 4.028
343.90 4.023
344.00 4.019
344.10 4.015
344.20 4.01
344.30 4.006
344.40 4.002
344.50 3.997
344.60 3.993
344.70 3.988
344.80 3.984
344.90 3.98
345.00 3.975
345.10 3.971
345.20 3.967
345.30 3.962
345.40 3.958
345.50 3.954
345.60 3.95
345.70 3.945
345.80 3.941
345.90 3.937
346.00 3.932
346.10 3.928
346.20 3.924
346.30 3.92
346.40 3.915
346.50 3.911
346.60 3.907
346.70 3.903
346.80 3.898
346.90 3.894
347.00 3.89
347.10 3.886
347.20 3.881
347.30 3.877
347.40 3.873
347.50 3.869
347.60 3.865
347.70 3.86
347.80 3.856
347.90 3.852
348.00 3.848
348.10 3.844
348.20 3.84
348.30 3.835
348.40 3.831
348.50 3.827
348.60 3.823
348.70 3.819
348.80 3.815
348.90 3.811
349.00 3.807
349.10 3.803
349.20 3.798
349.30 3.794
349.40 3.79
349.50 3.786
349.60 3.782
349.70 3.778
349.80 3.774
349.90 3.77
350.00 3.766
350.10 3.762
350.20 3.758
350.30 3.754
350.40 3.75
350.50 3.746
350.60 3.742
350.70 3.738
350.80 3.734
350.90 3.73
351.00 3.726
351.10 3.722
351.20 3.718
351.30 3.714
351.40 3.71
351.50 3.706
351.60 3.702
351.70 3.698
351.80 3.694
351.90 3.69
352.00 3.686
352.10 3.682
352.20 3.678
352.30 3.674
352.40 3.67
352.50 3.666
352.60 3.662
352.70 3.658
352.80 3.654
352.90 3.651
353.00 3.647
353.10 3.643
353.20 3.639
353.30 3.635
353.40 3.631
353.50 3.627
353.60 3.623
353.70 3.62
353.80 3.616
353.90 3.612
354.00 3.608
354.10 3.604
354.20 3.6
354.30 3.596
354.40 3.593
354.50 3.589
354.60 3.585
354.70 3.581
354.80 3.577
354.90 3.574
355.00 3.57
355.10 3.566
355.20 3.562
355.30 3.558
355.40 3.555
355.50 3.551
355.60 3.547
355.70 3.543
355.80 3.54
355.90 3.536
356.00 3.532
356.10 3.528
356.20 3.525
356.30 3.521
356.40 3.517
356.50 3.514
356.60 3.51
356.70 3.506
356.80 3.502
356.90 3.499
357.00 3.495
357.10 3.491
357.20 3.488
357.30 3.484
357.40 3.48
357.50 3.477
357.60 3.473
357.70 3.469
357.80 3.466
357.90 3.462
358.00 3.458
358.10 3.455
358.20 3.451
358.30 3.447
358.40 3.444
358.50 3.44
358.60 3.437
358.70 3.433
358.80 3.429
358.90 3.426
359.00 3.422
359.10 3.419
359.20 3.415
359.30 3.411
359.40 3.408
359.50 3.404
359.60 3.401
359.70 3.397
359.80 3.394
359.90 3.39
360.00 3.386
360.10 3.383
360.20 3.379
360.30 3.376
360.40 3.372
360.50 3.369
360.60 3.365
360.70 3.362
360.80 3.358
360.90 3.355
361.00 3.351
361.10 3.348
361.20 3.344
361.30 3.341
361.40 3.337
361.50 3.334
361.60 3.33
361.70 3.327
361.80 3.323
361.90 3.32
362.00 3.316
362.10 3.313
362.20 3.31
362.30 3.306
362.40 3.303
362.50 3.299
362.60 3.296
362.70 3.292
362.80 3.289
362.90 3.286
363.00 3.282
363.10 3.279
363.20 3.275
363.30 3.272
363.40 3.269
363.50 3.265
363.60 3.262
363.70 3.258
363.80 3.255
363.90 3.252
364.00 3.248
364.10 3.245
364.20 3.242
364.30 3.238
364.40 3.235
364.50 3.231
364.60 3.228
364.70 3.225
364.80 3.221
364.90 3.218
365.00 3.215
365.10 3.211
365.20 3.208
365.30 3.205
365.40 3.202
365.50 3.198
365.60 3.195
365.70 3.192
365.80 3.188
365.90 3.185
366.00 3.182
366.10 3.178
366.20 3.175
366.30 3.172
366.40 3.169
366.50 3.165
366.60 3.162
366.70 3.159
366.80 3.155
366.90 3.152
367.00 3.149
367.10 3.145
367.20 3.142
367.30 3.139
367.40 3.136
367.50 3.132
367.60 3.129
367.70 3.126
367.80 3.123
367.90 3.119
368.00 3.116
368.10 3.113
368.20 3.11
368.30 3.106
368.40 3.103
368.50 3.1
368.60 3.097
368.70 3.093
368.80 3.09
368.90 3.087
369.00 3.084
369.10 3.08
369.20 3.077
369.30 3.074
369.40 3.071
369.50 3.068
369.60 3.064
369.70 3.061
369.80 3.058
369.90 3.055
370.00 3.051
370.10 3.048
370.20 3.045
370.30 3.042
370.40 3.039
370.50 3.036
370.60 3.033
370.70 3.029
370.80 3.026
370.90 3.023
371.00 3.02
371.10 3.017
371.20 3.014
371.30 3.011
371.40 3.008
371.50 3.004
371.60 3.001
371.70 2.998
371.80 2.995
371.90 2.992
372.00 2.989
372.10 2.986
372.20 2.983
372.30 2.98
372.40 2.977
372.50 2.974
372.60 2.971
372.70 2.968
372.80 2.965
372.90 2.962
373.00 2.958
373.10 2.955
373.20 2.952
373.30 2.949
373.40 2.946
373.50 2.943
373.60 2.94
373.70 2.937
373.80 2.934
373.90 2.931
374.00 2.928
374.10 2.925
374.20 2.922
374.30 2.919
374.40 2.916
374.50 2.913
374.60 2.911
374.70 2.908
374.80 2.905
374.90 2.902
375.00 2.899
375.10 2.896
375.20 2.893
375.30 2.89
375.40 2.887
375.50 2.884
375.60 2.881
375.70 2.878
375.80 2.875
375.90 2.872
376.00 2.869
376.10 2.866
376.20 2.863
376.30 2.86
376.40 2.858
376.50 2.855
376.60 2.852
376.70 2.849
376.80 2.846
376.90 2.843
377.00 2.84
377.10 2.837
377.20 2.835
377.30 2.832
377.40 2.829
377.50 2.826
377.60 2.823
377.70 2.821
377.80 2.818
377.90 2.815
378.00 2.812
378.10 2.809
378.20 2.807
378.30 2.804
378.40 2.801
378.50 2.798
378.60 2.796
378.70 2.793
378.80 2.79
378.90 2.787
379.00 2.784
379.10 2.782
379.20 2.779
379.30 2.776
379.40 2.774
379.50 2.771
379.60 2.768
379.70 2.766
379.80 2.763
379.90 2.76
380.00 2.757
380.10 2.755
380.20 2.752
380.30 2.75
380.40 2.747
380.50 2.744
380.60 2.742
380.70 2.739
380.80 2.736
380.90 2.734
381.00 2.731
381.10 2.729
381.20 2.726
381.30 2.723
381.40 2.721
381.50 2.718
381.60 2.715
381.70 2.713
381.80 2.71
381.90 2.708
382.00 2.705
382.10 2.702
382.20 2.7
382.30 2.697
382.40 2.694
382.50 2.692
382.60 2.689
382.70 2.686
382.80 2.684
382.90 2.681
383.00 2.679
383.10 2.676
383.20 2.673
383.30 2.671
383.40 2.668
383.50 2.666
383.60 2.663
383.70 2.661
383.80 2.658
383.90 2.656
384.00 2.654
384.10 2.651
384.20 2.649
384.30 2.647
384.40 2.644
384.50 2.642
384.60 2.64
384.70 2.638
384.80 2.635
384.90 2.633
385.00 2.63
385.10 2.628
385.20 2.626
385.30 2.623
385.40 2.621
385.50 2.618
385.60 2.616
385.70 2.614
385.80 2.611
385.90 2.608
386.00 2.606
386.10 2.603
386.20 2.601
386.30 2.598
386.40 2.596
386.50 2.593
386.60 2.59
386.70 2.587
386.80 2.585
386.90 2.582
387.00 2.579
387.10 2.576
387.20 2.574
387.30 2.571
387.40 2.568
387.50 2.565
387.60 2.562
387.70 2.559
387.80 2.557
387.90 2.554
388.00 2.551
388.10 2.548
388.20 2.545
388.30 2.542
388.40 2.54
388.50 2.537
388.60 2.534
388.70 2.532
388.80 2.53
388.90 2.528
389.00 2.525
389.10 2.523
389.20 2.521
389.30 2.519
389.40 2.517
389.50 2.516
389.60 2.514
389.70 2.512
389.80 2.511
389.90 2.509
390.00 2.508
390.10 2.506
390.20 2.504
390.30 2.503
390.40 2.501
390.50 2.499
390.60 2.498
390.70 2.496
390.80 2.494
390.90 2.492
391.00 2.491
391.10 2.489
391.20 2.487
391.30 2.485
391.40 2.483
391.50 2.481
391.60 2.479
391.70 2.477
391.80 2.475
391.90 2.473
392.00 2.471
392.10 2.468
392.20 2.466
392.30 2.464
392.40 2.461
392.50 2.459
392.60 2.457
392.70 2.454
392.80 2.452
392.90 2.449
393.00 2.446
393.10 2.444
393.20 2.441
393.30 2.438
393.40 2.435
393.50 2.432
393.60 2.429
393.70 2.426
393.80 2.423
393.90 2.42
394.00 2.417
394.10 2.414
394.20 2.411
394.30 2.407
394.40 2.404
394.50 2.401
394.60 2.397
394.70 2.394
394.80 2.39
394.90 2.386
395.00 2.383
395.10 2.379
395.20 2.375
395.30 2.371
395.40 2.368
395.50 2.364
395.60 2.36
395.70 2.356
395.80 2.352
395.90 2.348
396.00 2.344
396.10 2.34
396.20 2.336
396.30 2.331
396.40 2.327
396.50 2.323
396.60 2.32
396.70 2.316
396.80 2.312
396.90 2.309
397.00 2.306
397.10 2.305
397.20 2.304
397.30 2.303
397.40 2.303
397.50 2.303
397.60 2.303
397.70 2.303
397.80 2.303
397.90 2.303
398.00 2.303
398.10 2.303
398.20 2.303
398.30 2.303
398.40 2.302
398.50 2.302
398.60 2.302
398.70 2.302
398.80 2.302
398.90 2.301
399.00 2.301
399.10 2.301
399.20 2.3
399.30 2.3
399.40 2.299
399.50 2.299
399.60 2.298
399.70 2.297
399.80 2.296
399.90 2.296
400.00 2.295
400.10 2.294
400.20 2.293
400.30 2.292
400.40 2.291
400.50 2.29
400.60 2.289
400.70 2.288
400.80 2.286
400.90 2.285
401.00 2.284
401.10 2.283
401.20 2.281
401.30 2.28
401.40 2.278
401.50 2.277
401.60 2.275
401.70 2.274
401.80 2.272
401.90 2.27
402.00 2.269
402.10 2.267
402.20 2.265
402.30 2.263
402.40 2.262
402.50 2.26
402.60 2.258
402.70 2.256
402.80 2.254
402.90 2.252
403.00 2.25
403.10 2.248
403.20 2.246
403.30 2.244
403.40 2.242
403.50 2.239
403.60 2.237
403.70 2.235
403.80 2.233
403.90 2.23
404.00 2.228
404.10 2.226
404.20 2.223
404.30 2.221
404.40 2.218
404.50 2.216
404.60 2.213
404.70 2.21
404.80 2.208
404.90 2.205
405.00 2.202
405.10 2.199
405.20 2.197
405.30 2.194
405.40 2.191
405.50 2.188
405.60 2.185
405.70 2.182
405.80 2.178
405.90 2.175
406.00 2.172
406.10 2.168
406.20 2.165
406.30 2.162
406.40 2.158
406.50 2.154
406.60 2.151
406.70 2.147
406.80 2.143
406.90 2.139
407.00 2.135
407.10 2.131
407.20 2.127
407.30 2.123
407.40 2.118
407.50 2.114
407.60 2.109
407.70 2.105
407.80 2.1
407.90 2.095
408.00 2.09
408.10 2.085
408.20 2.08
408.30 2.075
408.40 2.07
408.50 2.064
408.60 2.059
408.70 2.053
408.80 2.047
408.90 2.042
409.00 2.036
409.10 2.03
409.20 2.024
409.30 2.018
409.40 2.012
409.50 2.006
409.60 2.001
409.70 1.996
409.80 1.991
409.90 1.988
410.00 1.986
410.10 1.986
410.20 1.987
410.30 1.982
410.40 1.979
410.50 1.978
410.60 1.979
410.70 1.98
410.80 1.982
410.90 1.984
411.00 1.986
411.10 1.988
411.20 1.991
411.30 1.993
411.40 1.995
411.50 1.997
411.60 1.999
411.70 2.001
411.80 2.003
411.90 2.005
412.00 2.006
412.10 2.008
412.20 2.009
412.30 2.011
412.40 2.012
412.50 2.013
412.60 2.014
412.70 2.015
412.80 2.016
412.90 2.016
413.00 2.017
413.10 2.018
413.20 2.018
413.30 2.018
413.40 2.019
413.50 2.019
413.60 2.019
413.70 2.019
413.80 2.019
413.90 2.019
414.00 2.018
414.10 2.018
414.20 2.018
414.30 2.017
414.40 2.017
414.50 2.016
414.60 2.016
414.70 2.015
414.80 2.015
414.90 2.014
415.00 2.013
415.10 2.012
415.20 2.011
415.30 2.011
415.40 2.01
415.50 2.009
415.60 2.008
415.70 2.007
415.80 2.006
415.90 2.005
416.00 2.003
416.10 2.002
416.20 2.001
416.30 2
416.40 1.999
416.50 1.997
416.60 1.996
416.70 1.995
416.80 1.994
416.90 1.992
417.00 1.991
417.10 1.99
417.20 1.988
417.30 1.987
417.40 1.985
417.50 1.984
417.60 1.983
417.70 1.981
417.80 1.98
417.90 1.978
418.00 1.977
418.10 1.975
418.20 1.974
418.30 1.972
418.40 1.971
418.50 1.969
418.60 1.967
418.70 1.966
418.80 1.964
418.90 1.963
419.00 1.961
419.10 1.96
419.20 1.958
419.30 1.956
419.40 1.955
419.50 1.953
419.60 1.952
419.70 1.95
419.80 1.948
419.90 1.947
420.00 1.945
420.10 1.943
420.20 1.942
420.30 1.94
420.40 1.938
420.50 1.937
420.60 1.935
420.70 1.933
420.80 1.932
420.90 1.93
421.00 1.928
421.10 1.927
421.20 1.925
421.30 1.923
421.40 1.921
421.50 1.92
421.60 1.918
421.70 1.916
421.80 1.915
421.90 1.913
422.00 1.911
422.10 1.909
422.20 1.908
422.30 1.906
422.40 1.904
422.50 1.902
422.60 1.901
422.70 1.899
422.80 1.897
422.90 1.895
423.00 1.894
423.10 1.892
423.20 1.89
423.30 1.888
423.40 1.887
423.50 1.885
423.60 1.883
423.70 1.881
423.80 1.879
423.90 1.878
424.00 1.876
424.10 1.874
424.20 1.872
424.30 1.87
424.40 1.869
424.50 1.867
424.60 1.865
424.70 1.863
424.80 1.861
424.90 1.859
425.00 1.858
425.10 1.856
425.20 1.854
425.30 1.852
425.40 1.85
425.50 1.848
425.60 1.846
425.70 1.844
425.80 1.843
425.90 1.841
426.00 1.839
426.10 1.837
426.20 1.835
426.30 1.833
426.40 1.831
426.50 1.829
426.60 1.827
426.70 1.825
426.80 1.823
426.90 1.821
427.00 1.819
427.10 1.817
427.20 1.815
427.30 1.812
427.40 1.81
427.50 1.808
427.60 1.806
427.70 1.804
427.80 1.802
427.90 1.799
428.00 1.797
428.10 1.795
428.20 1.792
428.30 1.79
428.40 1.788
428.50 1.785
428.60 1.783
428.70 1.78
428.80 1.778
428.90 1.775
429.00 1.773
429.10 1.77
429.20 1.767
429.30 1.765
429.40 1.762
429.50 1.759
429.60 1.756
429.70 1.753
429.80 1.75
429.90 1.747
430.00 1.744
430.10 1.741
430.20 1.737
430.30 1.734
430.40 1.73
430.50 1.727
430.60 1.723
430.70 1.72
430.80 1.716
430.90 1.712
431.00 1.708
431.10 1.704
431.20 1.7
431.30 1.695
431.40 1.691
431.50 1.686
431.60 1.681
431.70 1.676
431.80 1.672
431.90 1.666
432.00 1.661
432.10 1.656
432.20 1.65
432.30 1.645
432.40 1.639
432.50 1.633
432.60 1.627
432.70 1.621
432.80 1.615
432.90 1.608
433.00 1.602
433.10 1.596
433.20 1.589
433.30 1.583
433.40 1.577
433.50 1.571
433.60 1.565
433.70 1.559
433.80 1.554
433.90 1.548
434.00 1.543
434.10 1.542
434.20 1.544
434.30 1.547
434.40 1.55
434.50 1.553
434.60 1.557
434.70 1.56
434.80 1.564
434.90 1.567
435.00 1.571
435.10 1.574
435.20 1.578
435.30 1.581
435.40 1.585
435.50 1.588
435.60 1.591
435.70 1.594
435.80 1.597
435.90 1.6
436.00 1.602
436.10 1.605
436.20 1.607
436.30 1.609
436.40 1.611
436.50 1.613
436.60 1.615
436.70 1.616
436.80 1.618
436.90 1.619
437.00 1.62
437.10 1.622
437.20 1.623
437.30 1.623
437.40 1.624
437.50 1.625
437.60 1.625
437.70 1.626
437.80 1.626
437.90 1.627
438.00 1.627
438.10 1.627
438.20 1.627
438.30 1.627
438.40 1.627
438.50 1.627
438.60 1.627
438.70 1.626
438.80 1.626
438.90 1.626
439.00 1.625
439.10 1.625
439.20 1.624
439.30 1.624
439.40 1.623
439.50 1.623
439.60 1.622
439.70 1.621
439.80 1.621
439.90 1.62
440.00 1.619
440.10 1.618
440.20 1.618
440.30 1.617
440.40 1.616
440.50 1.615
440.60 1.614
440.70 1.613
440.80 1.612
440.90 1.611
441.00 1.61
441.10 1.609
441.20 1.608
441.30 1.607
441.40 1.606
441.50 1.605
441.60 1.604
441.70 1.603
441.80 1.602
441.90 1.601
442.00 1.6
442.10 1.599
442.20 1.598
442.30 1.596
442.40 1.595
442.50 1.594
442.60 1.593
442.70 1.592
442.80 1.591
442.90 1.589
443.00 1.588
443.10 1.587
443.20 1.586
443.30 1.585
443.40 1.583
443.50 1.582
443.60 1.581
443.70 1.58
443.80 1.579
443.90 1.577
444.00 1.576
444.10 1.575
444.20 1.574
444.30 1.572
444.40 1.571
444.50 1.57
444.60 1.569
444.70 1.567
444.80 1.566
444.90 1.565
445.00 1.564
445.10 1.562
445.20 1.561
445.30 1.56
445.40 1.559
445.50 1.557
445.60 1.556
445.70 1.555
445.80 1.554
445.90 1.552
446.00 1.551
446.10 1.55
446.20 1.549
446.30 1.547
446.40 1.546
446.50 1.545
446.60 1.544
446.70 1.542
446.80 1.541
446.90 1.54
447.00 1.538
447.10 1.537
447.20 1.536
447.30 1.535
447.40 1.533
447.50 1.532
447.60 1.531
447.70 1.53
447.80 1.528
447.90 1.527
448.00 1.526
448.10 1.524
448.20 1.523
448.30 1.522
448.40 1.521
448.50 1.519
448.60 1.518
448.70 1.517
448.80 1.516
448.90 1.514
449.00 1.513
449.10 1.512
449.20 1.511
449.30 1.509
449.40 1.508
449.50 1.507
449.60 1.505
449.70 1.504
449.80 1.503
449.90 1.502
450.00 1.5
450.10 1.499
450.20 1.498
450.30 1.497
450.40 1.495
450.50 1.494
450.60 1.493
450.70 1.492
450.80 1.49
450.90 1.489
451.00 1.488
451.10 1.487
451.20 1.485
451.30 1.484
451.40 1.483
451.50 1.482
451.60 1.48
451.70 1.479
451.80 1.478
451.90 1.477
452.00 1.475
452.10 1.474
452.20 1.473
452.30 1.472
452.40 1.471
452.50 1.469
452.60 1.468
452.70 1.467
452.80 1.466
452.90 1.464
453.00 1.463
453.10 1.462
453.20 1.461
453.30 1.459
453.40 1.458
453.50 1.457
453.60 1.456
453.70 1.455
453.80 1.453
453.90 1.452
