# Version 2.1 - nm, norm@500 to 1, cut digits, bergeron_7500_95.dat_7500
# Wavelength(nm)  Flambda(ergs/cm^s/s/nm)
300.00 1.263
300.10 1.263
300.20 1.263
300.30 1.264
300.40 1.264
300.50 1.264
300.60 1.264
300.70 1.264
300.80 1.265
300.90 1.265
301.00 1.265
301.10 1.265
301.20 1.265
301.30 1.266
301.40 1.266
301.50 1.266
301.60 1.266
301.70 1.266
301.80 1.267
301.90 1.267
302.00 1.267
302.10 1.267
302.20 1.267
302.30 1.268
302.40 1.268
302.50 1.268
302.60 1.268
302.70 1.268
302.80 1.269
302.90 1.269
303.00 1.269
303.10 1.269
303.20 1.269
303.30 1.27
303.40 1.27
303.50 1.27
303.60 1.27
303.70 1.27
303.80 1.27
303.90 1.271
304.00 1.271
304.10 1.271
304.20 1.271
304.30 1.271
304.40 1.272
304.50 1.272
304.60 1.272
304.70 1.272
304.80 1.272
304.90 1.272
305.00 1.273
305.10 1.273
305.20 1.273
305.30 1.273
305.40 1.273
305.50 1.273
305.60 1.274
305.70 1.274
305.80 1.274
305.90 1.274
306.00 1.274
306.10 1.275
306.20 1.275
306.30 1.275
306.40 1.275
306.50 1.275
306.60 1.275
306.70 1.276
306.80 1.276
306.90 1.276
307.00 1.276
307.10 1.276
307.20 1.276
307.30 1.277
307.40 1.277
307.50 1.277
307.60 1.277
307.70 1.277
307.80 1.277
307.90 1.277
308.00 1.278
308.10 1.278
308.20 1.278
308.30 1.278
308.40 1.278
308.50 1.278
308.60 1.279
308.70 1.279
308.80 1.279
308.90 1.279
309.00 1.279
309.10 1.279
309.20 1.279
309.30 1.28
309.40 1.28
309.50 1.28
309.60 1.28
309.70 1.28
309.80 1.28
309.90 1.281
310.00 1.281
310.10 1.281
310.20 1.281
310.30 1.281
310.40 1.281
310.50 1.281
310.60 1.282
310.70 1.282
310.80 1.282
310.90 1.282
311.00 1.282
311.10 1.282
311.20 1.282
311.30 1.282
311.40 1.283
311.50 1.283
311.60 1.283
311.70 1.283
311.80 1.283
311.90 1.283
312.00 1.283
312.10 1.284
312.20 1.284
312.30 1.284
312.40 1.284
312.50 1.284
312.60 1.284
312.70 1.284
312.80 1.284
312.90 1.285
313.00 1.285
313.10 1.285
313.20 1.285
313.30 1.285
313.40 1.285
313.50 1.285
313.60 1.285
313.70 1.286
313.80 1.286
313.90 1.286
314.00 1.286
314.10 1.286
314.20 1.286
314.30 1.286
314.40 1.286
314.50 1.287
314.60 1.287
314.70 1.287
314.80 1.287
314.90 1.287
315.00 1.287
315.10 1.287
315.20 1.287
315.30 1.287
315.40 1.288
315.50 1.288
315.60 1.288
315.70 1.288
315.80 1.288
315.90 1.288
316.00 1.288
316.10 1.288
316.20 1.288
316.30 1.289
316.40 1.289
316.50 1.289
316.60 1.289
316.70 1.289
316.80 1.289
316.90 1.289
317.00 1.289
317.10 1.289
317.20 1.29
317.30 1.29
317.40 1.29
317.50 1.29
317.60 1.29
317.70 1.29
317.80 1.29
317.90 1.29
318.00 1.29
318.10 1.29
318.20 1.291
318.30 1.291
318.40 1.291
318.50 1.291
318.60 1.291
318.70 1.291
318.80 1.291
318.90 1.291
319.00 1.291
319.10 1.291
319.20 1.291
319.30 1.292
319.40 1.292
319.50 1.292
319.60 1.292
319.70 1.292
319.80 1.292
319.90 1.292
320.00 1.292
320.10 1.292
320.20 1.292
320.30 1.292
320.40 1.292
320.50 1.293
320.60 1.293
320.70 1.293
320.80 1.293
320.90 1.293
321.00 1.293
321.10 1.293
321.20 1.293
321.30 1.293
321.40 1.293
321.50 1.293
321.60 1.293
321.70 1.294
321.80 1.294
321.90 1.294
322.00 1.294
322.10 1.294
322.20 1.294
322.30 1.294
322.40 1.294
322.50 1.294
322.60 1.294
322.70 1.294
322.80 1.294
322.90 1.294
323.00 1.294
323.10 1.295
323.20 1.295
323.30 1.295
323.40 1.295
323.50 1.295
323.60 1.295
323.70 1.295
323.80 1.295
323.90 1.295
324.00 1.295
324.10 1.295
324.20 1.295
324.30 1.295
324.40 1.295
324.50 1.295
324.60 1.295
324.70 1.296
324.80 1.296
324.90 1.296
325.00 1.296
325.10 1.296
325.20 1.296
325.30 1.296
325.40 1.296
325.50 1.296
325.60 1.296
325.70 1.296
325.80 1.296
325.90 1.296
326.00 1.296
326.10 1.296
326.20 1.296
326.30 1.296
326.40 1.296
326.50 1.296
326.60 1.297
326.70 1.297
326.80 1.297
326.90 1.297
327.00 1.297
327.10 1.297
327.20 1.297
327.30 1.297
327.40 1.297
327.50 1.297
327.60 1.297
327.70 1.297
327.80 1.297
327.90 1.297
328.00 1.297
328.10 1.297
328.20 1.297
328.30 1.297
328.40 1.297
328.50 1.297
328.60 1.297
328.70 1.297
328.80 1.297
328.90 1.298
329.00 1.298
329.10 1.298
329.20 1.298
329.30 1.298
329.40 1.298
329.50 1.298
329.60 1.298
329.70 1.298
329.80 1.298
329.90 1.298
330.00 1.298
330.10 1.298
330.20 1.298
330.30 1.298
330.40 1.298
330.50 1.298
330.60 1.298
330.70 1.298
330.80 1.298
330.90 1.298
331.00 1.298
331.10 1.298
331.20 1.298
331.30 1.298
331.40 1.298
331.50 1.298
331.60 1.298
331.70 1.298
331.80 1.298
331.90 1.298
332.00 1.298
332.10 1.298
332.20 1.298
332.30 1.298
332.40 1.299
332.50 1.299
332.60 1.299
332.70 1.299
332.80 1.299
332.90 1.299
333.00 1.299
333.10 1.299
333.20 1.299
333.30 1.299
333.40 1.299
333.50 1.299
333.60 1.299
333.70 1.299
333.80 1.299
333.90 1.299
334.00 1.299
334.10 1.299
334.20 1.299
334.30 1.299
334.40 1.299
334.50 1.299
334.60 1.299
334.70 1.299
334.80 1.299
334.90 1.299
335.00 1.299
335.10 1.299
335.20 1.299
335.30 1.299
335.40 1.299
335.50 1.299
335.60 1.299
335.70 1.299
335.80 1.299
335.90 1.299
336.00 1.299
336.10 1.299
336.20 1.299
336.30 1.299
336.40 1.299
336.50 1.299
336.60 1.299
336.70 1.299
336.80 1.299
336.90 1.299
337.00 1.299
337.10 1.299
337.20 1.299
337.30 1.299
337.40 1.299
337.50 1.299
337.60 1.299
337.70 1.299
337.80 1.299
337.90 1.299
338.00 1.299
338.10 1.299
338.20 1.299
338.30 1.299
338.40 1.299
338.50 1.299
338.60 1.299
338.70 1.299
338.80 1.299
338.90 1.299
339.00 1.299
339.10 1.299
339.20 1.299
339.30 1.299
339.40 1.299
339.50 1.299
339.60 1.299
339.70 1.299
339.80 1.299
339.90 1.299
340.00 1.299
340.10 1.299
340.20 1.299
340.30 1.299
340.40 1.299
340.50 1.298
340.60 1.298
340.70 1.298
340.80 1.298
340.90 1.298
341.00 1.298
341.10 1.298
341.20 1.298
341.30 1.298
341.40 1.298
341.50 1.298
341.60 1.298
341.70 1.298
341.80 1.298
341.90 1.298
342.00 1.298
342.10 1.298
342.20 1.298
342.30 1.298
342.40 1.298
342.50 1.298
342.60 1.298
342.70 1.298
342.80 1.298
342.90 1.298
343.00 1.298
343.10 1.298
343.20 1.298
343.30 1.298
343.40 1.298
343.50 1.298
343.60 1.298
343.70 1.298
343.80 1.298
343.90 1.298
344.00 1.297
344.10 1.297
344.20 1.297
344.30 1.297
344.40 1.297
344.50 1.297
344.60 1.297
344.70 1.297
344.80 1.297
344.90 1.297
345.00 1.297
345.10 1.297
345.20 1.297
345.30 1.297
345.40 1.297
345.50 1.297
345.60 1.297
345.70 1.297
345.80 1.297
345.90 1.297
346.00 1.297
346.10 1.297
346.20 1.297
346.30 1.297
346.40 1.297
346.50 1.297
346.60 1.296
346.70 1.296
346.80 1.296
346.90 1.296
347.00 1.296
347.10 1.296
347.20 1.296
347.30 1.296
347.40 1.296
347.50 1.296
347.60 1.296
347.70 1.296
347.80 1.296
347.90 1.296
348.00 1.296
348.10 1.296
348.20 1.296
348.30 1.296
348.40 1.296
348.50 1.296
348.60 1.295
348.70 1.295
348.80 1.295
348.90 1.295
349.00 1.295
349.10 1.295
349.20 1.295
349.30 1.295
349.40 1.295
349.50 1.295
349.60 1.295
349.70 1.295
349.80 1.295
349.90 1.295
350.00 1.295
350.10 1.295
350.20 1.295
350.30 1.294
350.40 1.294
350.50 1.294
350.60 1.294
350.70 1.294
350.80 1.294
350.90 1.294
351.00 1.294
351.10 1.294
351.20 1.294
351.30 1.294
351.40 1.294
351.50 1.294
351.60 1.294
351.70 1.294
351.80 1.294
351.90 1.293
352.00 1.293
352.10 1.293
352.20 1.293
352.30 1.293
352.40 1.293
352.50 1.293
352.60 1.293
352.70 1.293
352.80 1.293
352.90 1.293
353.00 1.293
353.10 1.293
353.20 1.293
353.30 1.293
353.40 1.292
353.50 1.292
353.60 1.292
353.70 1.292
353.80 1.292
353.90 1.292
354.00 1.292
354.10 1.292
354.20 1.292
354.30 1.292
354.40 1.292
354.50 1.292
354.60 1.292
354.70 1.291
354.80 1.291
354.90 1.291
355.00 1.291
355.10 1.291
355.20 1.291
355.30 1.291
355.40 1.291
355.50 1.291
355.60 1.291
355.70 1.291
355.80 1.291
355.90 1.29
356.00 1.29
356.10 1.29
356.20 1.29
356.30 1.29
356.40 1.29
356.50 1.29
356.60 1.29
356.70 1.29
356.80 1.29
356.90 1.29
357.00 1.29
357.10 1.289
357.20 1.289
357.30 1.289
357.40 1.289
357.50 1.289
357.60 1.289
357.70 1.289
357.80 1.289
357.90 1.289
358.00 1.289
358.10 1.289
358.20 1.288
358.30 1.288
358.40 1.288
358.50 1.288
358.60 1.288
358.70 1.288
358.80 1.288
358.90 1.288
359.00 1.288
359.10 1.288
359.20 1.288
359.30 1.287
359.40 1.287
359.50 1.287
359.60 1.287
359.70 1.287
359.80 1.287
359.90 1.287
360.00 1.287
360.10 1.287
360.20 1.287
360.30 1.287
360.40 1.286
360.50 1.286
360.60 1.286
360.70 1.286
360.80 1.286
360.90 1.286
361.00 1.286
361.10 1.286
361.20 1.286
361.30 1.286
361.40 1.285
361.50 1.285
361.60 1.285
361.70 1.285
361.80 1.285
361.90 1.285
362.00 1.285
362.10 1.285
362.20 1.285
362.30 1.284
362.40 1.284
362.50 1.284
362.60 1.284
362.70 1.284
362.80 1.284
362.90 1.284
363.00 1.284
363.10 1.284
363.20 1.284
363.30 1.283
363.40 1.283
363.50 1.283
363.60 1.283
363.70 1.283
363.80 1.283
363.90 1.283
364.00 1.283
364.10 1.283
364.20 1.282
364.30 1.282
364.40 1.282
364.50 1.282
364.60 1.282
364.70 1.282
364.80 1.282
364.90 1.282
365.00 1.281
365.10 1.281
365.20 1.281
365.30 1.281
365.40 1.281
365.50 1.281
365.60 1.281
365.70 1.281
365.80 1.28
365.90 1.28
366.00 1.28
366.10 1.28
366.20 1.28
366.30 1.28
366.40 1.28
366.50 1.28
366.60 1.279
366.70 1.279
366.80 1.279
366.90 1.279
367.00 1.279
367.10 1.279
367.20 1.279
367.30 1.279
367.40 1.279
367.50 1.278
367.60 1.278
367.70 1.278
367.80 1.278
367.90 1.278
368.00 1.278
368.10 1.278
368.20 1.278
368.30 1.277
368.40 1.277
368.50 1.277
368.60 1.277
368.70 1.277
368.80 1.277
368.90 1.277
369.00 1.277
369.10 1.276
369.20 1.276
369.30 1.276
369.40 1.276
369.50 1.276
369.60 1.276
369.70 1.276
369.80 1.276
369.90 1.275
370.00 1.275
370.10 1.275
370.20 1.275
370.30 1.275
370.40 1.275
370.50 1.275
370.60 1.274
370.70 1.274
370.80 1.274
370.90 1.274
371.00 1.274
371.10 1.274
371.20 1.274
371.30 1.273
371.40 1.273
371.50 1.273
371.60 1.273
371.70 1.273
371.80 1.273
371.90 1.273
372.00 1.273
372.10 1.272
372.20 1.272
372.30 1.272
372.40 1.272
372.50 1.272
372.60 1.272
372.70 1.272
372.80 1.271
372.90 1.271
373.00 1.271
373.10 1.271
373.20 1.271
373.30 1.271
373.40 1.271
373.50 1.271
373.60 1.27
373.70 1.27
373.80 1.27
373.90 1.27
374.00 1.27
374.10 1.27
374.20 1.27
374.30 1.269
374.40 1.269
374.50 1.269
374.60 1.269
374.70 1.269
374.80 1.269
374.90 1.269
375.00 1.268
375.10 1.268
375.20 1.268
375.30 1.268
375.40 1.268
375.50 1.268
375.60 1.267
375.70 1.267
375.80 1.267
375.90 1.267
376.00 1.267
376.10 1.267
376.20 1.267
376.30 1.266
376.40 1.266
376.50 1.266
376.60 1.266
376.70 1.266
376.80 1.266
376.90 1.266
377.00 1.265
377.10 1.265
377.20 1.265
377.30 1.265
377.40 1.265
377.50 1.265
377.60 1.264
377.70 1.264
377.80 1.264
377.90 1.264
378.00 1.264
378.10 1.264
378.20 1.264
378.30 1.263
378.40 1.263
378.50 1.263
378.60 1.263
378.70 1.263
378.80 1.263
378.90 1.262
379.00 1.262
379.10 1.262
379.20 1.262
379.30 1.262
379.40 1.261
379.50 1.261
379.60 1.261
379.70 1.261
379.80 1.26
379.90 1.26
380.00 1.26
380.10 1.26
380.20 1.26
380.30 1.26
380.40 1.26
380.50 1.26
380.60 1.26
380.70 1.259
380.80 1.259
380.90 1.259
381.00 1.259
381.10 1.259
381.20 1.259
381.30 1.259
381.40 1.259
381.50 1.258
381.60 1.258
381.70 1.258
381.80 1.258
381.90 1.258
382.00 1.258
382.10 1.257
382.20 1.257
382.30 1.257
382.40 1.257
382.50 1.256
382.60 1.256
382.70 1.256
382.80 1.255
382.90 1.255
383.00 1.255
383.10 1.254
383.20 1.254
383.30 1.253
383.40 1.252
383.50 1.25
383.60 1.25
383.70 1.252
383.80 1.253
383.90 1.253
384.00 1.254
384.10 1.254
384.20 1.254
384.30 1.254
384.40 1.254
384.50 1.254
384.60 1.254
384.70 1.254
384.80 1.254
384.90 1.254
385.00 1.254
385.10 1.254
385.20 1.254
385.30 1.253
385.40 1.253
385.50 1.253
385.60 1.253
385.70 1.253
385.80 1.253
385.90 1.253
386.00 1.252
386.10 1.252
386.20 1.252
386.30 1.252
386.40 1.252
386.50 1.252
386.60 1.251
386.70 1.251
386.80 1.251
386.90 1.251
387.00 1.25
387.10 1.25
387.20 1.25
387.30 1.25
387.40 1.249
387.50 1.249
387.60 1.248
387.70 1.248
387.80 1.247
387.90 1.247
388.00 1.246
388.10 1.246
388.20 1.245
388.30 1.244
388.40 1.243
388.50 1.242
388.60 1.24
388.70 1.238
388.80 1.234
388.90 1.23
389.00 1.234
389.10 1.237
389.20 1.239
389.30 1.241
389.40 1.242
389.50 1.243
389.60 1.244
389.70 1.244
389.80 1.245
389.90 1.245
390.00 1.245
390.10 1.246
390.20 1.246
390.30 1.246
390.40 1.246
390.50 1.246
390.60 1.247
390.70 1.247
390.80 1.247
390.90 1.247
391.00 1.247
391.10 1.247
391.20 1.247
391.30 1.247
391.40 1.247
391.50 1.247
391.60 1.247
391.70 1.247
391.80 1.247
391.90 1.247
392.00 1.246
392.10 1.246
392.20 1.246
392.30 1.246
392.40 1.246
392.50 1.246
392.60 1.246
392.70 1.246
392.80 1.245
392.90 1.245
393.00 1.245
393.10 1.245
393.20 1.245
393.30 1.244
393.40 1.244
393.50 1.244
393.60 1.244
393.70 1.243
393.80 1.243
393.90 1.243
394.00 1.242
394.10 1.242
394.20 1.241
394.30 1.241
394.40 1.24
394.50 1.24
394.60 1.239
394.70 1.239
394.80 1.238
394.90 1.238
395.00 1.237
395.10 1.236
395.20 1.235
395.30 1.234
395.40 1.233
395.50 1.232
395.60 1.231
395.70 1.23
395.80 1.229
395.90 1.227
396.00 1.226
396.10 1.224
396.20 1.222
396.30 1.219
396.40 1.217
396.50 1.214
396.60 1.21
396.70 1.206
396.80 1.2
396.90 1.191
397.00 1.18
397.10 1.19
397.20 1.199
397.30 1.205
397.40 1.209
397.50 1.212
397.60 1.215
397.70 1.218
397.80 1.22
397.90 1.222
398.00 1.223
398.10 1.225
398.20 1.226
398.30 1.227
398.40 1.228
398.50 1.229
398.60 1.23
398.70 1.231
398.80 1.231
398.90 1.232
399.00 1.232
399.10 1.233
399.20 1.233
399.30 1.234
399.40 1.234
399.50 1.234
399.60 1.235
399.70 1.235
399.80 1.235
399.90 1.235
400.00 1.236
400.10 1.236
400.20 1.236
400.30 1.236
400.40 1.236
400.50 1.236
400.60 1.236
400.70 1.236
400.80 1.236
400.90 1.236
401.00 1.236
401.10 1.236
401.20 1.236
401.30 1.236
401.40 1.236
401.50 1.236
401.60 1.236
401.70 1.236
401.80 1.236
401.90 1.236
402.00 1.236
402.10 1.235
402.20 1.235
402.30 1.235
402.40 1.235
402.50 1.235
402.60 1.235
402.70 1.235
402.80 1.235
402.90 1.234
403.00 1.234
403.10 1.234
403.20 1.234
403.30 1.234
403.40 1.234
403.50 1.233
403.60 1.233
403.70 1.233
403.80 1.233
403.90 1.233
404.00 1.232
404.10 1.232
404.20 1.232
404.30 1.232
404.40 1.231
404.50 1.231
404.60 1.231
404.70 1.23
404.80 1.23
404.90 1.23
405.00 1.23
405.10 1.229
405.20 1.229
405.30 1.229
405.40 1.228
405.50 1.228
405.60 1.227
405.70 1.227
405.80 1.226
405.90 1.226
406.00 1.226
406.10 1.225
406.20 1.225
406.30 1.224
406.40 1.223
406.50 1.223
406.60 1.222
406.70 1.221
406.80 1.221
406.90 1.22
407.00 1.219
407.10 1.218
407.20 1.218
407.30 1.217
407.40 1.216
407.50 1.214
407.60 1.213
407.70 1.212
407.80 1.211
407.90 1.209
408.00 1.208
408.10 1.206
408.20 1.204
408.30 1.202
408.40 1.2
408.50 1.198
408.60 1.195
408.70 1.193
408.80 1.19
408.90 1.186
409.00 1.183
409.10 1.179
409.20 1.174
409.30 1.169
409.40 1.164
409.50 1.157
409.60 1.15
409.70 1.141
409.80 1.131
409.90 1.12
410.00 1.104
410.10 1.086
410.20 1.067
410.30 1.092
410.40 1.112
410.50 1.126
410.60 1.136
410.70 1.145
410.80 1.152
410.90 1.159
411.00 1.164
411.10 1.169
411.20 1.174
411.30 1.177
411.40 1.181
411.50 1.184
411.60 1.187
411.70 1.189
411.80 1.191
411.90 1.193
412.00 1.195
412.10 1.197
412.20 1.198
412.30 1.2
412.40 1.201
412.50 1.202
412.60 1.203
412.70 1.204
412.80 1.205
412.90 1.206
413.00 1.206
413.10 1.207
413.20 1.208
413.30 1.208
413.40 1.209
413.50 1.209
413.60 1.209
413.70 1.21
413.80 1.21
413.90 1.21
414.00 1.21
414.10 1.211
414.20 1.211
414.30 1.211
414.40 1.211
414.50 1.211
414.60 1.211
414.70 1.211
414.80 1.211
414.90 1.211
415.00 1.211
415.10 1.211
415.20 1.211
415.30 1.211
415.40 1.211
415.50 1.211
415.60 1.211
415.70 1.211
415.80 1.211
415.90 1.211
416.00 1.211
416.10 1.211
416.20 1.211
416.30 1.211
416.40 1.211
416.50 1.211
416.60 1.21
416.70 1.21
416.80 1.21
416.90 1.21
417.00 1.21
417.10 1.21
417.20 1.21
417.30 1.21
417.40 1.209
417.50 1.209
417.60 1.209
417.70 1.209
417.80 1.209
417.90 1.209
418.00 1.208
418.10 1.208
418.20 1.208
418.30 1.208
418.40 1.208
418.50 1.208
418.60 1.207
418.70 1.207
418.80 1.207
418.90 1.207
419.00 1.207
419.10 1.207
419.20 1.206
419.30 1.206
419.40 1.206
419.50 1.206
419.60 1.206
419.70 1.205
419.80 1.205
419.90 1.205
420.00 1.205
420.10 1.205
420.20 1.204
420.30 1.204
420.40 1.204
420.50 1.204
420.60 1.204
420.70 1.203
420.80 1.203
420.90 1.203
421.00 1.203
421.10 1.202
421.20 1.202
421.30 1.202
421.40 1.202
421.50 1.202
421.60 1.201
421.70 1.201
421.80 1.201
421.90 1.201
422.00 1.2
422.10 1.2
422.20 1.2
422.30 1.2
422.40 1.2
422.50 1.199
422.60 1.199
422.70 1.199
422.80 1.199
422.90 1.198
423.00 1.198
423.10 1.198
423.20 1.198
423.30 1.197
423.40 1.197
423.50 1.197
423.60 1.197
423.70 1.196
423.80 1.196
423.90 1.196
424.00 1.196
424.10 1.195
424.20 1.195
424.30 1.195
424.40 1.195
424.50 1.194
424.60 1.194
424.70 1.194
424.80 1.193
424.90 1.193
425.00 1.193
425.10 1.193
425.20 1.192
425.30 1.192
425.40 1.192
425.50 1.192
425.60 1.191
425.70 1.191
425.80 1.191
425.90 1.19
426.00 1.19
426.10 1.19
426.20 1.189
426.30 1.189
426.40 1.189
426.50 1.188
426.60 1.188
426.70 1.188
426.80 1.187
426.90 1.187
427.00 1.187
427.10 1.186
427.20 1.186
427.30 1.186
427.40 1.185
427.50 1.185
427.60 1.185
427.70 1.184
427.80 1.184
427.90 1.183
428.00 1.183
428.10 1.183
428.20 1.182
428.30 1.182
428.40 1.181
428.50 1.181
428.60 1.18
428.70 1.18
428.80 1.179
428.90 1.179
429.00 1.178
429.10 1.178
429.20 1.177
429.30 1.176
429.40 1.176
429.50 1.175
429.60 1.174
429.70 1.174
429.80 1.173
429.90 1.172
430.00 1.171
430.10 1.17
430.20 1.17
430.30 1.169
430.40 1.168
430.50 1.167
430.60 1.165
430.70 1.164
430.80 1.163
430.90 1.162
431.00 1.16
431.10 1.159
431.20 1.157
431.30 1.155
431.40 1.153
431.50 1.151
431.60 1.149
431.70 1.147
431.80 1.144
431.90 1.142
432.00 1.138
432.10 1.135
432.20 1.131
432.30 1.127
432.40 1.123
432.50 1.118
432.60 1.113
432.70 1.107
432.80 1.1
432.90 1.092
433.00 1.084
433.10 1.074
433.20 1.064
433.30 1.052
433.40 1.038
433.50 1.021
433.60 1.002
433.70 0.9772
433.80 0.9469
433.90 0.9115
434.00 0.8502
434.10 0.8513
434.20 0.9147
434.30 0.949
434.40 0.9784
434.50 1.003
434.60 1.021
434.70 1.037
434.80 1.051
434.90 1.062
435.00 1.072
435.10 1.081
435.20 1.089
435.30 1.096
435.40 1.102
435.50 1.107
435.60 1.112
435.70 1.117
435.80 1.121
435.90 1.124
436.00 1.127
436.10 1.13
436.20 1.133
436.30 1.135
436.40 1.137
436.50 1.139
436.60 1.141
436.70 1.142
436.80 1.143
436.90 1.145
437.00 1.146
437.10 1.147
437.20 1.148
437.30 1.148
437.40 1.149
437.50 1.15
437.60 1.151
437.70 1.151
437.80 1.152
437.90 1.152
438.00 1.152
438.10 1.153
438.20 1.153
438.30 1.153
438.40 1.154
438.50 1.154
438.60 1.154
438.70 1.154
438.80 1.154
438.90 1.154
439.00 1.155
439.10 1.155
439.20 1.155
439.30 1.155
439.40 1.155
439.50 1.155
439.60 1.155
439.70 1.155
439.80 1.155
439.90 1.155
440.00 1.155
440.10 1.155
440.20 1.154
440.30 1.154
440.40 1.154
440.50 1.154
440.60 1.154
440.70 1.154
440.80 1.154
440.90 1.154
441.00 1.154
441.10 1.153
441.20 1.153
441.30 1.153
441.40 1.153
441.50 1.153
441.60 1.153
441.70 1.153
441.80 1.152
441.90 1.152
442.00 1.152
442.10 1.152
442.20 1.152
442.30 1.151
442.40 1.151
442.50 1.151
442.60 1.151
442.70 1.151
442.80 1.151
442.90 1.15
443.00 1.15
443.10 1.15
443.20 1.15
443.30 1.15
443.40 1.149
443.50 1.149
443.60 1.149
443.70 1.149
443.80 1.148
443.90 1.148
444.00 1.148
444.10 1.148
444.20 1.148
444.30 1.147
444.40 1.147
444.50 1.147
444.60 1.147
444.70 1.147
444.80 1.146
444.90 1.146
445.00 1.146
445.10 1.146
445.20 1.145
445.30 1.145
445.40 1.145
445.50 1.145
445.60 1.144
445.70 1.144
445.80 1.144
445.90 1.144
446.00 1.144
446.10 1.143
446.20 1.143
446.30 1.143
446.40 1.143
446.50 1.142
446.60 1.142
446.70 1.142
446.80 1.142
446.90 1.141
447.00 1.141
447.10 1.141
447.20 1.141
447.30 1.14
447.40 1.14
447.50 1.14
447.60 1.14
447.70 1.14
447.80 1.139
447.90 1.139
448.00 1.139
448.10 1.139
448.20 1.138
448.30 1.138
448.40 1.138
448.50 1.138
448.60 1.137
448.70 1.137
448.80 1.137
448.90 1.137
449.00 1.136
449.10 1.136
449.20 1.136
449.30 1.136
449.40 1.135
449.50 1.135
449.60 1.135
449.70 1.135
449.80 1.134
449.90 1.134
450.00 1.134
450.10 1.134
450.20 1.133
450.30 1.133
450.40 1.133
450.50 1.133
450.60 1.132
450.70 1.132
450.80 1.132
450.90 1.132
451.00 1.131
451.10 1.131
451.20 1.131
451.30 1.131
451.40 1.13
451.50 1.13
451.60 1.13
451.70 1.13
451.80 1.129
451.90 1.129
452.00 1.129
452.10 1.129
452.20 1.128
452.30 1.128
452.40 1.128
452.50 1.128
452.60 1.127
452.70 1.127
452.80 1.127
452.90 1.126
453.00 1.126
453.10 1.126
453.20 1.126
453.30 1.125
453.40 1.125
453.50 1.125
453.60 1.125
453.70 1.124
453.80 1.124
