# Version 2.1 - nm, norm@500 to 1, cut digits, bergeron_60000_70.dat_60000
# Wavelength(nm)  Flambda(ergs/cm^s/s/nm)
300.00 6.39
300.10 6.382
300.20 6.374
300.30 6.366
300.40 6.359
300.50 6.351
300.60 6.343
300.70 6.335
300.80 6.328
300.90 6.32
301.00 6.312
301.10 6.305
301.20 6.297
301.30 6.289
301.40 6.282
301.50 6.274
301.60 6.266
301.70 6.259
301.80 6.251
301.90 6.244
302.00 6.236
302.10 6.229
302.20 6.221
302.30 6.213
302.40 6.206
302.50 6.198
302.60 6.191
302.70 6.183
302.80 6.176
302.90 6.168
303.00 6.161
303.10 6.154
303.20 6.146
303.30 6.139
303.40 6.131
303.50 6.124
303.60 6.116
303.70 6.109
303.80 6.102
303.90 6.094
304.00 6.087
304.10 6.08
304.20 6.072
304.30 6.065
304.40 6.058
304.50 6.05
304.60 6.043
304.70 6.036
304.80 6.029
304.90 6.021
305.00 6.014
305.10 6.007
305.20 6
305.30 5.993
305.40 5.985
305.50 5.978
305.60 5.971
305.70 5.964
305.80 5.957
305.90 5.95
306.00 5.942
306.10 5.935
306.20 5.928
306.30 5.921
306.40 5.914
306.50 5.907
306.60 5.9
306.70 5.893
306.80 5.886
306.90 5.879
307.00 5.872
307.10 5.865
307.20 5.858
307.30 5.851
307.40 5.844
307.50 5.837
307.60 5.83
307.70 5.823
307.80 5.816
307.90 5.809
308.00 5.802
308.10 5.795
308.20 5.788
308.30 5.781
308.40 5.775
308.50 5.768
308.60 5.761
308.70 5.754
308.80 5.747
308.90 5.74
309.00 5.734
309.10 5.727
309.20 5.72
309.30 5.713
309.40 5.706
309.50 5.7
309.60 5.693
309.70 5.686
309.80 5.679
309.90 5.673
310.00 5.666
310.10 5.659
310.20 5.653
310.30 5.646
310.40 5.639
310.50 5.632
310.60 5.626
310.70 5.619
310.80 5.613
310.90 5.606
311.00 5.599
311.10 5.593
311.20 5.586
311.30 5.58
311.40 5.573
311.50 5.566
311.60 5.56
311.70 5.553
311.80 5.547
311.90 5.54
312.00 5.534
312.10 5.527
312.20 5.521
312.30 5.514
312.40 5.508
312.50 5.501
312.60 5.495
312.70 5.488
312.80 5.482
312.90 5.475
313.00 5.469
313.10 5.463
313.20 5.456
313.30 5.45
313.40 5.443
313.50 5.437
313.60 5.431
313.70 5.424
313.80 5.418
313.90 5.412
314.00 5.405
314.10 5.399
314.20 5.393
314.30 5.386
314.40 5.38
314.50 5.374
314.60 5.368
314.70 5.361
314.80 5.355
314.90 5.349
315.00 5.343
315.10 5.336
315.20 5.33
315.30 5.324
315.40 5.318
315.50 5.312
315.60 5.305
315.70 5.299
315.80 5.293
315.90 5.287
316.00 5.281
316.10 5.275
316.20 5.268
316.30 5.262
316.40 5.256
316.50 5.25
316.60 5.244
316.70 5.238
316.80 5.232
316.90 5.226
317.00 5.22
317.10 5.214
317.20 5.208
317.30 5.202
317.40 5.196
317.50 5.19
317.60 5.184
317.70 5.178
317.80 5.172
317.90 5.166
318.00 5.16
318.10 5.154
318.20 5.148
318.30 5.142
318.40 5.136
318.50 5.13
318.60 5.124
318.70 5.118
318.80 5.112
318.90 5.106
319.00 5.1
319.10 5.095
319.20 5.089
319.30 5.083
319.40 5.077
319.50 5.071
319.60 5.065
319.70 5.059
319.80 5.054
319.90 5.048
320.00 5.042
320.10 5.036
320.20 5.03
320.30 5.025
320.40 5.019
320.50 5.013
320.60 5.007
320.70 5.002
320.80 4.996
320.90 4.99
321.00 4.984
321.10 4.979
321.20 4.973
321.30 4.967
321.40 4.962
321.50 4.956
321.60 4.95
321.70 4.945
321.80 4.939
321.90 4.933
322.00 4.928
322.10 4.922
322.20 4.916
322.30 4.911
322.40 4.905
322.50 4.9
322.60 4.894
322.70 4.889
322.80 4.883
322.90 4.877
323.00 4.872
323.10 4.866
323.20 4.861
323.30 4.855
323.40 4.85
323.50 4.844
323.60 4.839
323.70 4.833
323.80 4.828
323.90 4.822
324.00 4.817
324.10 4.811
324.20 4.806
324.30 4.8
324.40 4.795
324.50 4.789
324.60 4.784
324.70 4.779
324.80 4.773
324.90 4.768
325.00 4.762
325.10 4.757
325.20 4.752
325.30 4.746
325.40 4.741
325.50 4.735
325.60 4.73
325.70 4.725
325.80 4.719
325.90 4.714
326.00 4.709
326.10 4.703
326.20 4.698
326.30 4.693
326.40 4.688
326.50 4.682
326.60 4.677
326.70 4.672
326.80 4.666
326.90 4.661
327.00 4.656
327.10 4.651
327.20 4.645
327.30 4.64
327.40 4.635
327.50 4.63
327.60 4.625
327.70 4.619
327.80 4.614
327.90 4.609
328.00 4.604
328.10 4.599
328.20 4.594
328.30 4.588
328.40 4.583
328.50 4.578
328.60 4.573
328.70 4.568
328.80 4.563
328.90 4.558
329.00 4.553
329.10 4.547
329.20 4.542
329.30 4.537
329.40 4.532
329.50 4.527
329.60 4.522
329.70 4.517
329.80 4.512
329.90 4.507
330.00 4.502
330.10 4.497
330.20 4.492
330.30 4.487
330.40 4.482
330.50 4.477
330.60 4.472
330.70 4.467
330.80 4.462
330.90 4.457
331.00 4.452
331.10 4.447
331.20 4.442
331.30 4.437
331.40 4.432
331.50 4.427
331.60 4.422
331.70 4.417
331.80 4.413
331.90 4.408
332.00 4.403
332.10 4.398
332.20 4.393
332.30 4.388
332.40 4.383
332.50 4.378
332.60 4.374
332.70 4.369
332.80 4.364
332.90 4.359
333.00 4.354
333.10 4.349
333.20 4.345
333.30 4.34
333.40 4.335
333.50 4.33
333.60 4.325
333.70 4.321
333.80 4.316
333.90 4.311
334.00 4.306
334.10 4.302
334.20 4.297
334.30 4.292
334.40 4.287
334.50 4.283
334.60 4.278
334.70 4.273
334.80 4.269
334.90 4.264
335.00 4.259
335.10 4.254
335.20 4.25
335.30 4.245
335.40 4.24
335.50 4.236
335.60 4.231
335.70 4.226
335.80 4.222
335.90 4.217
336.00 4.212
336.10 4.208
336.20 4.203
336.30 4.199
336.40 4.194
336.50 4.189
336.60 4.185
336.70 4.18
336.80 4.176
336.90 4.171
337.00 4.167
337.10 4.162
337.20 4.157
337.30 4.153
337.40 4.148
337.50 4.144
337.60 4.139
337.70 4.135
337.80 4.13
337.90 4.126
338.00 4.121
338.10 4.117
338.20 4.112
338.30 4.108
338.40 4.103
338.50 4.099
338.60 4.094
338.70 4.09
338.80 4.085
338.90 4.081
339.00 4.077
339.10 4.072
339.20 4.068
339.30 4.063
339.40 4.059
339.50 4.054
339.60 4.05
339.70 4.046
339.80 4.041
339.90 4.037
340.00 4.032
340.10 4.028
340.20 4.024
340.30 4.019
340.40 4.015
340.50 4.011
340.60 4.006
340.70 4.002
340.80 3.998
340.90 3.993
341.00 3.989
341.10 3.985
341.20 3.98
341.30 3.976
341.40 3.972
341.50 3.967
341.60 3.963
341.70 3.959
341.80 3.955
341.90 3.95
342.00 3.946
342.10 3.942
342.20 3.937
342.30 3.933
342.40 3.929
342.50 3.925
342.60 3.921
342.70 3.916
342.80 3.912
342.90 3.908
343.00 3.904
343.10 3.899
343.20 3.895
343.30 3.891
343.40 3.887
343.50 3.883
343.60 3.879
343.70 3.874
343.80 3.87
343.90 3.866
344.00 3.862
344.10 3.858
344.20 3.854
344.30 3.849
344.40 3.845
344.50 3.841
344.60 3.837
344.70 3.833
344.80 3.829
344.90 3.825
345.00 3.821
345.10 3.817
345.20 3.813
345.30 3.808
345.40 3.804
345.50 3.8
345.60 3.796
345.70 3.792
345.80 3.788
345.90 3.784
346.00 3.78
346.10 3.776
346.20 3.772
346.30 3.768
346.40 3.764
346.50 3.76
346.60 3.756
346.70 3.752
346.80 3.748
346.90 3.744
347.00 3.74
347.10 3.736
347.20 3.732
347.30 3.728
347.40 3.724
347.50 3.72
347.60 3.716
347.70 3.712
347.80 3.708
347.90 3.704
348.00 3.7
348.10 3.696
348.20 3.692
348.30 3.689
348.40 3.685
348.50 3.681
348.60 3.677
348.70 3.673
348.80 3.669
348.90 3.665
349.00 3.661
349.10 3.657
349.20 3.654
349.30 3.65
349.40 3.646
349.50 3.642
349.60 3.638
349.70 3.634
349.80 3.63
349.90 3.627
350.00 3.623
350.10 3.619
350.20 3.615
350.30 3.611
350.40 3.607
350.50 3.604
350.60 3.6
350.70 3.596
350.80 3.592
350.90 3.588
351.00 3.585
351.10 3.581
351.20 3.577
351.30 3.573
351.40 3.57
351.50 3.566
351.60 3.562
351.70 3.558
351.80 3.555
351.90 3.551
352.00 3.547
352.10 3.543
352.20 3.54
352.30 3.536
352.40 3.532
352.50 3.529
352.60 3.525
352.70 3.521
352.80 3.517
352.90 3.514
353.00 3.51
353.10 3.506
353.20 3.503
353.30 3.499
353.40 3.495
353.50 3.492
353.60 3.488
353.70 3.484
353.80 3.481
353.90 3.477
354.00 3.473
354.10 3.47
354.20 3.466
354.30 3.463
354.40 3.459
354.50 3.455
354.60 3.452
354.70 3.448
354.80 3.445
354.90 3.441
355.00 3.437
355.10 3.434
355.20 3.43
355.30 3.427
355.40 3.423
355.50 3.42
355.60 3.416
355.70 3.412
355.80 3.409
355.90 3.405
356.00 3.402
356.10 3.398
356.20 3.395
356.30 3.391
356.40 3.388
356.50 3.384
356.60 3.381
356.70 3.377
356.80 3.374
356.90 3.37
357.00 3.367
357.10 3.363
357.20 3.36
357.30 3.356
357.40 3.353
357.50 3.349
357.60 3.346
357.70 3.342
357.80 3.339
357.90 3.335
358.00 3.332
358.10 3.328
358.20 3.325
358.30 3.322
358.40 3.318
358.50 3.315
358.60 3.311
358.70 3.308
358.80 3.305
358.90 3.301
359.00 3.298
359.10 3.294
359.20 3.291
359.30 3.288
359.40 3.284
359.50 3.281
359.60 3.277
359.70 3.274
359.80 3.271
359.90 3.267
360.00 3.264
360.10 3.26
360.20 3.257
360.30 3.254
360.40 3.25
360.50 3.247
360.60 3.244
360.70 3.24
360.80 3.237
360.90 3.234
361.00 3.231
361.10 3.227
361.20 3.224
361.30 3.221
361.40 3.217
361.50 3.214
361.60 3.211
361.70 3.207
361.80 3.204
361.90 3.201
362.00 3.198
362.10 3.194
362.20 3.191
362.30 3.188
362.40 3.184
362.50 3.181
362.60 3.178
362.70 3.175
362.80 3.171
362.90 3.168
363.00 3.165
363.10 3.162
363.20 3.159
363.30 3.155
363.40 3.152
363.50 3.149
363.60 3.146
363.70 3.142
363.80 3.139
363.90 3.136
364.00 3.133
364.10 3.13
364.20 3.126
364.30 3.123
364.40 3.12
364.50 3.117
364.60 3.114
364.70 3.111
364.80 3.107
364.90 3.104
365.00 3.101
365.10 3.098
365.20 3.095
365.30 3.092
365.40 3.089
365.50 3.085
365.60 3.082
365.70 3.079
365.80 3.076
365.90 3.073
366.00 3.07
366.10 3.067
366.20 3.063
366.30 3.06
366.40 3.057
366.50 3.054
366.60 3.051
366.70 3.047
366.80 3.044
366.90 3.041
367.00 3.038
367.10 3.035
367.20 3.032
367.30 3.028
367.40 3.025
367.50 3.022
367.60 3.019
367.70 3.016
367.80 3.013
367.90 3.009
368.00 3.006
368.10 3.003
368.20 3
368.30 2.997
368.40 2.994
368.50 2.991
368.60 2.988
368.70 2.984
368.80 2.981
368.90 2.978
369.00 2.975
369.10 2.972
369.20 2.969
369.30 2.966
369.40 2.963
369.50 2.96
369.60 2.957
369.70 2.954
369.80 2.951
369.90 2.947
370.00 2.944
370.10 2.941
370.20 2.938
370.30 2.935
370.40 2.932
370.50 2.929
370.60 2.926
370.70 2.923
370.80 2.92
370.90 2.917
371.00 2.914
371.10 2.911
371.20 2.908
371.30 2.905
371.40 2.902
371.50 2.899
371.60 2.896
371.70 2.893
371.80 2.89
371.90 2.887
372.00 2.884
372.10 2.881
372.20 2.879
372.30 2.876
372.40 2.873
372.50 2.87
372.60 2.867
372.70 2.864
372.80 2.861
372.90 2.859
373.00 2.856
373.10 2.853
373.20 2.85
373.30 2.847
373.40 2.844
373.50 2.842
373.60 2.839
373.70 2.836
373.80 2.833
373.90 2.83
374.00 2.827
374.10 2.825
374.20 2.822
374.30 2.819
374.40 2.817
374.50 2.814
374.60 2.811
374.70 2.809
374.80 2.806
374.90 2.803
375.00 2.801
375.10 2.798
375.20 2.795
375.30 2.793
375.40 2.79
375.50 2.787
375.60 2.785
375.70 2.782
375.80 2.779
375.90 2.777
376.00 2.774
376.10 2.771
376.20 2.769
376.30 2.766
376.40 2.763
376.50 2.761
376.60 2.758
376.70 2.755
376.80 2.752
376.90 2.75
377.00 2.747
377.10 2.745
377.20 2.743
377.30 2.74
377.40 2.738
377.50 2.736
377.60 2.734
377.70 2.731
377.80 2.729
377.90 2.727
378.00 2.725
378.10 2.722
378.20 2.719
378.30 2.717
378.40 2.714
378.50 2.711
378.60 2.708
378.70 2.706
378.80 2.703
378.90 2.7
379.00 2.698
379.10 2.695
379.20 2.692
379.30 2.689
379.40 2.687
379.50 2.684
379.60 2.681
379.70 2.678
379.80 2.676
379.90 2.673
380.00 2.67
380.10 2.669
380.20 2.667
380.30 2.666
380.40 2.664
380.50 2.663
380.60 2.661
380.70 2.66
380.80 2.659
380.90 2.657
381.00 2.656
381.10 2.653
381.20 2.651
381.30 2.649
381.40 2.646
381.50 2.644
381.60 2.641
381.70 2.638
381.80 2.635
381.90 2.632
382.00 2.628
382.10 2.625
382.20 2.621
382.30 2.616
382.40 2.612
382.50 2.607
382.60 2.603
382.70 2.598
382.80 2.593
382.90 2.589
383.00 2.584
383.10 2.579
383.20 2.575
383.30 2.57
383.40 2.566
383.50 2.562
383.60 2.56
383.70 2.56
383.80 2.561
383.90 2.562
384.00 2.563
384.10 2.564
384.20 2.565
384.30 2.566
384.40 2.566
384.50 2.567
384.60 2.567
384.70 2.568
384.80 2.568
384.90 2.568
385.00 2.567
385.10 2.567
385.20 2.566
385.30 2.565
385.40 2.564
385.50 2.563
385.60 2.561
385.70 2.56
385.80 2.558
385.90 2.556
386.00 2.553
386.10 2.55
386.20 2.548
386.30 2.544
386.40 2.541
386.50 2.537
386.60 2.533
386.70 2.529
386.80 2.525
386.90 2.52
387.00 2.515
387.10 2.51
387.20 2.504
387.30 2.498
387.40 2.492
387.50 2.485
387.60 2.478
387.70 2.471
387.80 2.464
387.90 2.456
388.00 2.448
388.10 2.44
388.20 2.431
388.30 2.423
388.40 2.414
388.50 2.405
388.60 2.397
388.70 2.39
388.80 2.384
388.90 2.381
389.00 2.38
389.10 2.381
389.20 2.385
389.30 2.389
389.40 2.394
389.50 2.398
389.60 2.403
389.70 2.408
389.80 2.412
389.90 2.416
390.00 2.42
390.10 2.424
390.20 2.427
390.30 2.43
390.40 2.433
390.50 2.435
390.60 2.438
390.70 2.44
390.80 2.441
390.90 2.443
391.00 2.444
391.10 2.445
391.20 2.446
391.30 2.446
391.40 2.447
391.50 2.447
391.60 2.447
391.70 2.446
391.80 2.446
391.90 2.445
392.00 2.444
392.10 2.443
392.20 2.442
392.30 2.441
392.40 2.439
392.50 2.438
392.60 2.436
392.70 2.434
392.80 2.432
392.90 2.429
393.00 2.427
393.10 2.424
393.20 2.421
393.30 2.418
393.40 2.415
393.50 2.412
393.60 2.408
393.70 2.404
393.80 2.4
393.90 2.396
394.00 2.392
394.10 2.387
394.20 2.382
394.30 2.377
394.40 2.372
394.50 2.366
394.60 2.36
394.70 2.354
394.80 2.347
394.90 2.34
395.00 2.333
395.10 2.325
395.20 2.317
395.30 2.309
395.40 2.3
395.50 2.29
395.60 2.281
395.70 2.27
395.80 2.26
395.90 2.248
396.00 2.237
396.10 2.225
396.20 2.212
396.30 2.199
396.40 2.186
396.50 2.172
396.60 2.158
396.70 2.144
396.80 2.13
396.90 2.117
397.00 2.104
397.10 2.112
397.20 2.121
397.30 2.131
397.40 2.142
397.50 2.152
397.60 2.161
397.70 2.171
397.80 2.18
397.90 2.189
398.00 2.197
398.10 2.204
398.20 2.212
398.30 2.218
398.40 2.224
398.50 2.23
398.60 2.236
398.70 2.241
398.80 2.245
398.90 2.249
399.00 2.253
399.10 2.256
399.20 2.259
399.30 2.262
399.40 2.264
399.50 2.266
399.60 2.268
399.70 2.27
399.80 2.271
399.90 2.272
400.00 2.273
400.10 2.273
400.20 2.274
400.30 2.274
400.40 2.274
400.50 2.274
400.60 2.274
400.70 2.274
400.80 2.274
400.90 2.273
401.00 2.273
401.10 2.272
401.20 2.271
401.30 2.27
401.40 2.269
401.50 2.268
401.60 2.267
401.70 2.266
401.80 2.264
401.90 2.263
402.00 2.262
402.10 2.26
402.20 2.259
402.30 2.257
402.40 2.256
402.50 2.254
402.60 2.252
402.70 2.251
402.80 2.249
402.90 2.247
403.00 2.245
403.10 2.243
403.20 2.241
403.30 2.239
403.40 2.237
403.50 2.235
403.60 2.233
403.70 2.231
403.80 2.229
403.90 2.227
404.00 2.224
404.10 2.222
404.20 2.22
404.30 2.218
404.40 2.215
404.50 2.213
404.60 2.21
404.70 2.208
404.80 2.205
404.90 2.203
405.00 2.2
405.10 2.197
405.20 2.195
405.30 2.192
405.40 2.189
405.50 2.186
405.60 2.183
405.70 2.18
405.80 2.177
405.90 2.173
406.00 2.17
406.10 2.167
406.20 2.163
406.30 2.159
406.40 2.156
406.50 2.152
406.60 2.148
406.70 2.143
406.80 2.139
406.90 2.135
407.00 2.13
407.10 2.125
407.20 2.12
407.30 2.114
407.40 2.109
407.50 2.103
407.60 2.097
407.70 2.09
407.80 2.084
407.90 2.076
408.00 2.069
408.10 2.061
408.20 2.053
408.30 2.044
408.40 2.035
408.50 2.025
408.60 2.015
408.70 2.004
408.80 1.992
408.90 1.98
409.00 1.968
409.10 1.954
409.20 1.941
409.30 1.926
409.40 1.911
409.50 1.895
409.60 1.878
409.70 1.861
409.80 1.843
409.90 1.825
410.00 1.808
410.10 1.798
410.20 1.796
410.30 1.8
410.40 1.81
410.50 1.825
410.60 1.839
410.70 1.854
410.80 1.867
410.90 1.88
411.00 1.892
411.10 1.903
411.20 1.914
411.30 1.924
411.40 1.933
411.50 1.942
411.60 1.949
411.70 1.957
411.80 1.964
411.90 1.97
412.00 1.975
412.10 1.981
412.20 1.985
412.30 1.99
412.40 1.993
412.50 1.997
412.60 2
412.70 2.002
412.80 2.005
412.90 2.007
413.00 2.009
413.10 2.01
413.20 2.012
413.30 2.013
413.40 2.014
413.50 2.015
413.60 2.015
413.70 2.015
413.80 2.016
413.90 2.016
414.00 2.016
414.10 2.016
414.20 2.015
414.30 2.015
414.40 2.015
414.50 2.014
414.60 2.014
414.70 2.013
414.80 2.012
414.90 2.011
415.00 2.01
415.10 2.009
415.20 2.008
415.30 2.007
415.40 2.006
415.50 2.005
415.60 2.004
415.70 2.003
415.80 2.002
415.90 2
416.00 1.999
416.10 1.998
416.20 1.996
416.30 1.995
416.40 1.994
416.50 1.992
416.60 1.991
416.70 1.989
416.80 1.988
416.90 1.987
417.00 1.985
417.10 1.984
417.20 1.982
417.30 1.98
417.40 1.979
417.50 1.977
417.60 1.976
417.70 1.974
417.80 1.973
417.90 1.971
418.00 1.969
418.10 1.968
418.20 1.966
418.30 1.965
418.40 1.963
418.50 1.961
418.60 1.96
418.70 1.958
418.80 1.956
418.90 1.955
419.00 1.953
419.10 1.952
419.20 1.95
419.30 1.948
419.40 1.947
419.50 1.945
419.60 1.943
419.70 1.942
419.80 1.94
419.90 1.938
420.00 1.936
420.10 1.935
420.20 1.933
420.30 1.931
420.40 1.93
420.50 1.928
420.60 1.926
420.70 1.925
420.80 1.923
420.90 1.921
421.00 1.92
421.10 1.918
421.20 1.916
421.30 1.915
421.40 1.913
421.50 1.911
421.60 1.909
421.70 1.908
421.80 1.906
421.90 1.904
422.00 1.903
422.10 1.901
422.20 1.899
422.30 1.897
422.40 1.896
422.50 1.894
422.60 1.892
422.70 1.891
422.80 1.889
422.90 1.887
423.00 1.886
423.10 1.884
423.20 1.882
423.30 1.88
423.40 1.879
423.50 1.877
423.60 1.875
423.70 1.874
423.80 1.872
423.90 1.87
424.00 1.868
424.10 1.867
424.20 1.865
424.30 1.863
424.40 1.861
424.50 1.86
424.60 1.858
424.70 1.856
424.80 1.854
424.90 1.853
425.00 1.851
425.10 1.849
425.20 1.847
425.30 1.846
425.40 1.844
425.50 1.842
425.60 1.84
425.70 1.839
425.80 1.837
425.90 1.835
426.00 1.833
426.10 1.832
426.20 1.83
426.30 1.828
426.40 1.826
426.50 1.824
426.60 1.823
426.70 1.821
426.80 1.819
426.90 1.817
427.00 1.815
427.10 1.813
427.20 1.811
427.30 1.81
427.40 1.808
427.50 1.806
427.60 1.804
427.70 1.802
427.80 1.8
427.90 1.798
428.00 1.796
428.10 1.794
428.20 1.792
428.30 1.79
428.40 1.788
428.50 1.786
428.60 1.784
428.70 1.781
428.80 1.779
428.90 1.777
429.00 1.775
429.10 1.772
429.20 1.77
429.30 1.768
429.40 1.765
429.50 1.763
429.60 1.76
429.70 1.758
429.80 1.755
429.90 1.752
430.00 1.749
430.10 1.747
430.20 1.744
430.30 1.741
430.40 1.737
430.50 1.734
430.60 1.731
430.70 1.727
430.80 1.723
430.90 1.719
431.00 1.715
431.10 1.711
431.20 1.707
431.30 1.702
431.40 1.697
431.50 1.692
431.60 1.687
431.70 1.681
431.80 1.675
431.90 1.669
432.00 1.662
432.10 1.655
432.20 1.647
432.30 1.639
432.40 1.631
432.50 1.622
432.60 1.612
432.70 1.602
432.80 1.591
432.90 1.58
433.00 1.568
433.10 1.555
433.20 1.542
433.30 1.528
433.40 1.513
433.50 1.497
433.60 1.482
433.70 1.465
433.80 1.447
433.90 1.428
434.00 1.411
434.10 1.41
434.20 1.426
434.30 1.442
434.40 1.457
434.50 1.472
434.60 1.485
434.70 1.498
434.80 1.51
434.90 1.521
435.00 1.532
435.10 1.542
435.20 1.551
435.30 1.559
435.40 1.567
435.50 1.574
435.60 1.581
435.70 1.587
435.80 1.593
435.90 1.598
436.00 1.602
436.10 1.606
436.20 1.61
436.30 1.613
436.40 1.616
436.50 1.619
436.60 1.621
436.70 1.623
436.80 1.625
436.90 1.627
437.00 1.628
437.10 1.629
437.20 1.63
437.30 1.631
437.40 1.631
437.50 1.632
437.60 1.632
437.70 1.632
437.80 1.633
437.90 1.633
438.00 1.632
438.10 1.632
438.20 1.632
438.30 1.632
438.40 1.631
438.50 1.631
438.60 1.63
438.70 1.63
438.80 1.629
438.90 1.628
439.00 1.628
439.10 1.627
439.20 1.626
439.30 1.625
439.40 1.624
439.50 1.624
439.60 1.623
439.70 1.622
439.80 1.621
439.90 1.62
440.00 1.619
440.10 1.618
440.20 1.617
440.30 1.616
440.40 1.615
440.50 1.613
440.60 1.612
440.70 1.611
440.80 1.61
440.90 1.609
441.00 1.608
441.10 1.607
441.20 1.605
441.30 1.604
441.40 1.603
441.50 1.602
441.60 1.601
441.70 1.599
441.80 1.598
441.90 1.597
442.00 1.596
442.10 1.595
442.20 1.593
442.30 1.592
442.40 1.591
442.50 1.59
442.60 1.588
442.70 1.587
442.80 1.586
442.90 1.585
443.00 1.583
443.10 1.582
443.20 1.581
443.30 1.58
443.40 1.578
443.50 1.577
443.60 1.576
443.70 1.574
443.80 1.573
443.90 1.572
444.00 1.571
444.10 1.569
444.20 1.568
444.30 1.567
444.40 1.565
444.50 1.564
444.60 1.563
444.70 1.562
444.80 1.56
444.90 1.559
445.00 1.558
445.10 1.557
445.20 1.555
445.30 1.554
445.40 1.553
445.50 1.551
445.60 1.55
445.70 1.549
445.80 1.548
445.90 1.546
446.00 1.545
446.10 1.544
446.20 1.542
446.30 1.541
446.40 1.54
446.50 1.539
446.60 1.537
446.70 1.536
446.80 1.535
446.90 1.533
447.00 1.532
447.10 1.531
447.20 1.53
447.30 1.528
447.40 1.527
447.50 1.526
447.60 1.524
447.70 1.523
447.80 1.522
447.90 1.521
448.00 1.519
448.10 1.518
448.20 1.517
448.30 1.516
448.40 1.514
448.50 1.513
448.60 1.512
448.70 1.511
448.80 1.509
448.90 1.508
449.00 1.507
449.10 1.505
449.20 1.504
449.30 1.503
449.40 1.502
449.50 1.5
449.60 1.499
449.70 1.498
449.80 1.497
449.90 1.495
450.00 1.494
450.10 1.493
450.20 1.492
450.30 1.49
450.40 1.489
450.50 1.488
450.60 1.487
450.70 1.485
450.80 1.484
450.90 1.483
451.00 1.482
451.10 1.48
451.20 1.479
451.30 1.478
451.40 1.477
451.50 1.476
451.60 1.474
451.70 1.473
451.80 1.472
451.90 1.471
452.00 1.469
452.10 1.468
452.20 1.467
452.30 1.466
452.40 1.464
452.50 1.463
452.60 1.462
452.70 1.461
452.80 1.46
452.90 1.458
453.00 1.457
453.10 1.456
453.20 1.455
453.30 1.453
453.40 1.452
453.50 1.451
453.60 1.45
453.70 1.449
453.80 1.447
453.90 1.446
454.00 1.445
454.10 1.444
454.20 1.443
