# Version 2.1 - nm, norm@500 to 1, cut digits, bergeron_80000_70.dat_80000
# Wavelength(nm)  Flambda(ergs/cm^s/s/nm)
300.00 6.658
300.10 6.649
300.20 6.641
300.30 6.633
300.40 6.625
300.50 6.617
300.60 6.608
300.70 6.6
300.80 6.592
300.90 6.584
301.00 6.576
301.10 6.568
301.20 6.56
301.30 6.551
301.40 6.543
301.50 6.535
301.60 6.527
301.70 6.519
301.80 6.511
301.90 6.503
302.00 6.495
302.10 6.487
302.20 6.479
302.30 6.471
302.40 6.463
302.50 6.455
302.60 6.447
302.70 6.439
302.80 6.431
302.90 6.423
303.00 6.416
303.10 6.408
303.20 6.4
303.30 6.392
303.40 6.384
303.50 6.376
303.60 6.368
303.70 6.361
303.80 6.353
303.90 6.345
304.00 6.337
304.10 6.329
304.20 6.322
304.30 6.314
304.40 6.306
304.50 6.299
304.60 6.291
304.70 6.283
304.80 6.275
304.90 6.268
305.00 6.26
305.10 6.253
305.20 6.245
305.30 6.237
305.40 6.23
305.50 6.222
305.60 6.214
305.70 6.207
305.80 6.199
305.90 6.192
306.00 6.184
306.10 6.177
306.20 6.169
306.30 6.162
306.40 6.154
306.50 6.147
306.60 6.139
306.70 6.132
306.80 6.124
306.90 6.117
307.00 6.109
307.10 6.102
307.20 6.095
307.30 6.087
307.40 6.08
307.50 6.073
307.60 6.065
307.70 6.058
307.80 6.051
307.90 6.043
308.00 6.036
308.10 6.029
308.20 6.021
308.30 6.014
308.40 6.007
308.50 5.999
308.60 5.992
308.70 5.985
308.80 5.978
308.90 5.971
309.00 5.963
309.10 5.956
309.20 5.949
309.30 5.942
309.40 5.935
309.50 5.927
309.60 5.92
309.70 5.913
309.80 5.906
309.90 5.899
310.00 5.892
310.10 5.885
310.20 5.878
310.30 5.871
310.40 5.864
310.50 5.857
310.60 5.85
310.70 5.843
310.80 5.836
310.90 5.829
311.00 5.822
311.10 5.815
311.20 5.808
311.30 5.801
311.40 5.794
311.50 5.787
311.60 5.78
311.70 5.773
311.80 5.766
311.90 5.759
312.00 5.752
312.10 5.745
312.20 5.738
312.30 5.732
312.40 5.725
312.50 5.718
312.60 5.711
312.70 5.704
312.80 5.697
312.90 5.691
313.00 5.684
313.10 5.677
313.20 5.67
313.30 5.664
313.40 5.657
313.50 5.65
313.60 5.643
313.70 5.637
313.80 5.63
313.90 5.623
314.00 5.617
314.10 5.61
314.20 5.603
314.30 5.597
314.40 5.59
314.50 5.583
314.60 5.577
314.70 5.57
314.80 5.564
314.90 5.557
315.00 5.55
315.10 5.544
315.20 5.537
315.30 5.531
315.40 5.524
315.50 5.518
315.60 5.511
315.70 5.505
315.80 5.498
315.90 5.492
316.00 5.485
316.10 5.479
316.20 5.472
316.30 5.466
316.40 5.459
316.50 5.453
316.60 5.446
316.70 5.44
316.80 5.434
316.90 5.427
317.00 5.421
317.10 5.414
317.20 5.408
317.30 5.402
317.40 5.395
317.50 5.389
317.60 5.383
317.70 5.376
317.80 5.37
317.90 5.364
318.00 5.357
318.10 5.351
318.20 5.345
318.30 5.339
318.40 5.332
318.50 5.326
318.60 5.32
318.70 5.314
318.80 5.307
318.90 5.301
319.00 5.295
319.10 5.289
319.20 5.283
319.30 5.276
319.40 5.27
319.50 5.264
319.60 5.258
319.70 5.252
319.80 5.246
319.90 5.239
320.00 5.233
320.10 5.227
320.20 5.221
320.30 5.215
320.40 5.209
320.50 5.203
320.60 5.197
320.70 5.191
320.80 5.185
320.90 5.179
321.00 5.173
321.10 5.167
321.20 5.161
321.30 5.155
321.40 5.149
321.50 5.143
321.60 5.137
321.70 5.131
321.80 5.125
321.90 5.119
322.00 5.113
322.10 5.107
322.20 5.101
322.30 5.095
322.40 5.089
322.50 5.083
322.60 5.077
322.70 5.072
322.80 5.066
322.90 5.06
323.00 5.054
323.10 5.048
323.20 5.042
323.30 5.036
323.40 5.031
323.50 5.025
323.60 5.019
323.70 5.013
323.80 5.007
323.90 5.002
324.00 4.996
324.10 4.99
324.20 4.984
324.30 4.979
324.40 4.973
324.50 4.967
324.60 4.961
324.70 4.956
324.80 4.95
324.90 4.944
325.00 4.939
325.10 4.933
325.20 4.927
325.30 4.922
325.40 4.916
325.50 4.91
325.60 4.905
325.70 4.899
325.80 4.893
325.90 4.888
326.00 4.882
326.10 4.877
326.20 4.871
326.30 4.865
326.40 4.86
326.50 4.854
326.60 4.849
326.70 4.843
326.80 4.838
326.90 4.832
327.00 4.827
327.10 4.821
327.20 4.816
327.30 4.81
327.40 4.805
327.50 4.799
327.60 4.794
327.70 4.788
327.80 4.783
327.90 4.777
328.00 4.772
328.10 4.766
328.20 4.761
328.30 4.756
328.40 4.75
328.50 4.745
328.60 4.739
328.70 4.734
328.80 4.729
328.90 4.723
329.00 4.718
329.10 4.712
329.20 4.707
329.30 4.702
329.40 4.696
329.50 4.691
329.60 4.686
329.70 4.68
329.80 4.675
329.90 4.67
330.00 4.664
330.10 4.659
330.20 4.654
330.30 4.649
330.40 4.643
330.50 4.638
330.60 4.633
330.70 4.628
330.80 4.623
330.90 4.617
331.00 4.612
331.10 4.607
331.20 4.602
331.30 4.596
331.40 4.591
331.50 4.586
331.60 4.581
331.70 4.576
331.80 4.571
331.90 4.565
332.00 4.56
332.10 4.555
332.20 4.55
332.30 4.545
332.40 4.54
332.50 4.535
332.60 4.53
332.70 4.524
332.80 4.519
332.90 4.514
333.00 4.509
333.10 4.504
333.20 4.499
333.30 4.494
333.40 4.489
333.50 4.484
333.60 4.479
333.70 4.474
333.80 4.469
333.90 4.464
334.00 4.459
334.10 4.454
334.20 4.449
334.30 4.444
334.40 4.439
334.50 4.434
334.60 4.429
334.70 4.424
334.80 4.419
334.90 4.414
335.00 4.409
335.10 4.404
335.20 4.399
335.30 4.394
335.40 4.39
335.50 4.385
335.60 4.38
335.70 4.375
335.80 4.37
335.90 4.365
336.00 4.36
336.10 4.355
336.20 4.351
336.30 4.346
336.40 4.341
336.50 4.336
336.60 4.331
336.70 4.326
336.80 4.322
336.90 4.317
337.00 4.312
337.10 4.307
337.20 4.302
337.30 4.298
337.40 4.293
337.50 4.288
337.60 4.283
337.70 4.279
337.80 4.274
337.90 4.269
338.00 4.264
338.10 4.26
338.20 4.255
338.30 4.25
338.40 4.246
338.50 4.241
338.60 4.236
338.70 4.231
338.80 4.227
338.90 4.222
339.00 4.217
339.10 4.213
339.20 4.208
339.30 4.204
339.40 4.199
339.50 4.194
339.60 4.19
339.70 4.185
339.80 4.18
339.90 4.176
340.00 4.171
340.10 4.167
340.20 4.162
340.30 4.157
340.40 4.153
340.50 4.148
340.60 4.144
340.70 4.139
340.80 4.135
340.90 4.13
341.00 4.125
341.10 4.121
341.20 4.116
341.30 4.112
341.40 4.107
341.50 4.103
341.60 4.098
341.70 4.094
341.80 4.089
341.90 4.085
342.00 4.08
342.10 4.076
342.20 4.071
342.30 4.067
342.40 4.063
342.50 4.058
342.60 4.054
342.70 4.049
342.80 4.045
342.90 4.04
343.00 4.036
343.10 4.032
343.20 4.027
343.30 4.023
343.40 4.018
343.50 4.014
343.60 4.01
343.70 4.005
343.80 4.001
343.90 3.997
344.00 3.992
344.10 3.988
344.20 3.983
344.30 3.979
344.40 3.975
344.50 3.971
344.60 3.966
344.70 3.962
344.80 3.958
344.90 3.953
345.00 3.949
345.10 3.945
345.20 3.94
345.30 3.936
345.40 3.932
345.50 3.928
345.60 3.923
345.70 3.919
345.80 3.915
345.90 3.911
346.00 3.906
346.10 3.902
346.20 3.898
346.30 3.894
346.40 3.889
346.50 3.885
346.60 3.881
346.70 3.877
346.80 3.873
346.90 3.868
347.00 3.864
347.10 3.86
347.20 3.856
347.30 3.852
347.40 3.848
347.50 3.843
347.60 3.839
347.70 3.835
347.80 3.831
347.90 3.827
348.00 3.823
348.10 3.819
348.20 3.814
348.30 3.81
348.40 3.806
348.50 3.802
348.60 3.798
348.70 3.794
348.80 3.79
348.90 3.786
349.00 3.782
349.10 3.778
349.20 3.774
349.30 3.77
349.40 3.766
349.50 3.762
349.60 3.757
349.70 3.753
349.80 3.749
349.90 3.745
350.00 3.741
350.10 3.737
350.20 3.733
350.30 3.729
350.40 3.725
350.50 3.721
350.60 3.717
350.70 3.713
350.80 3.709
350.90 3.706
351.00 3.702
351.10 3.698
351.20 3.694
351.30 3.69
351.40 3.686
351.50 3.682
351.60 3.678
351.70 3.674
351.80 3.67
351.90 3.666
352.00 3.662
352.10 3.658
352.20 3.654
352.30 3.651
352.40 3.647
352.50 3.643
352.60 3.639
352.70 3.635
352.80 3.631
352.90 3.627
353.00 3.623
353.10 3.62
353.20 3.616
353.30 3.612
353.40 3.608
353.50 3.604
353.60 3.6
353.70 3.597
353.80 3.593
353.90 3.589
354.00 3.585
354.10 3.581
354.20 3.578
354.30 3.574
354.40 3.57
354.50 3.566
354.60 3.562
354.70 3.559
354.80 3.555
354.90 3.551
355.00 3.547
355.10 3.544
355.20 3.54
355.30 3.536
355.40 3.532
355.50 3.529
355.60 3.525
355.70 3.521
355.80 3.517
355.90 3.514
356.00 3.51
356.10 3.506
356.20 3.503
356.30 3.499
356.40 3.495
356.50 3.492
356.60 3.488
356.70 3.484
356.80 3.481
356.90 3.477
357.00 3.473
357.10 3.47
357.20 3.466
357.30 3.462
357.40 3.459
357.50 3.455
357.60 3.451
357.70 3.448
357.80 3.444
357.90 3.441
358.00 3.437
358.10 3.433
358.20 3.43
358.30 3.426
358.40 3.423
358.50 3.419
358.60 3.415
358.70 3.412
358.80 3.408
358.90 3.405
359.00 3.401
359.10 3.398
359.20 3.394
359.30 3.39
359.40 3.387
359.50 3.383
359.60 3.38
359.70 3.376
359.80 3.373
359.90 3.369
360.00 3.366
360.10 3.362
360.20 3.359
360.30 3.355
360.40 3.352
360.50 3.348
360.60 3.345
360.70 3.341
360.80 3.338
360.90 3.334
361.00 3.331
361.10 3.327
361.20 3.324
361.30 3.32
361.40 3.317
361.50 3.314
361.60 3.31
361.70 3.307
361.80 3.303
361.90 3.3
362.00 3.296
362.10 3.293
362.20 3.29
362.30 3.286
362.40 3.283
362.50 3.279
362.60 3.276
362.70 3.272
362.80 3.269
362.90 3.266
363.00 3.262
363.10 3.259
363.20 3.256
363.30 3.252
363.40 3.249
363.50 3.246
363.60 3.242
363.70 3.239
363.80 3.235
363.90 3.232
364.00 3.229
364.10 3.225
364.20 3.222
364.30 3.219
364.40 3.215
364.50 3.212
364.60 3.209
364.70 3.206
364.80 3.202
364.90 3.199
365.00 3.196
365.10 3.192
365.20 3.189
365.30 3.186
365.40 3.183
365.50 3.179
365.60 3.176
365.70 3.173
365.80 3.169
365.90 3.166
366.00 3.163
366.10 3.16
366.20 3.156
366.30 3.153
366.40 3.15
366.50 3.146
366.60 3.143
366.70 3.14
366.80 3.136
366.90 3.133
367.00 3.13
367.10 3.127
367.20 3.123
367.30 3.12
367.40 3.117
367.50 3.114
367.60 3.11
367.70 3.107
367.80 3.104
367.90 3.1
368.00 3.097
368.10 3.094
368.20 3.091
368.30 3.088
368.40 3.084
368.50 3.081
368.60 3.078
368.70 3.075
368.80 3.072
368.90 3.068
369.00 3.065
369.10 3.062
369.20 3.059
369.30 3.056
369.40 3.052
369.50 3.049
369.60 3.046
369.70 3.043
369.80 3.04
369.90 3.036
370.00 3.033
370.10 3.03
370.20 3.027
370.30 3.024
370.40 3.021
370.50 3.018
370.60 3.015
370.70 3.011
370.80 3.008
370.90 3.005
371.00 3.002
371.10 2.999
371.20 2.996
371.30 2.993
371.40 2.99
371.50 2.987
371.60 2.984
371.70 2.98
371.80 2.977
371.90 2.974
372.00 2.971
372.10 2.968
372.20 2.965
372.30 2.962
372.40 2.959
372.50 2.956
372.60 2.953
372.70 2.95
372.80 2.947
372.90 2.944
373.00 2.941
373.10 2.938
373.20 2.935
373.30 2.932
373.40 2.929
373.50 2.926
373.60 2.923
373.70 2.92
373.80 2.917
373.90 2.914
374.00 2.911
374.10 2.909
374.20 2.906
374.30 2.903
374.40 2.9
374.50 2.897
374.60 2.894
374.70 2.891
374.80 2.889
374.90 2.886
375.00 2.883
375.10 2.88
375.20 2.877
375.30 2.874
375.40 2.872
375.50 2.869
375.60 2.866
375.70 2.863
375.80 2.86
375.90 2.857
376.00 2.855
376.10 2.852
376.20 2.849
376.30 2.846
376.40 2.843
376.50 2.84
376.60 2.838
376.70 2.835
376.80 2.832
376.90 2.829
377.00 2.826
377.10 2.824
377.20 2.821
377.30 2.819
377.40 2.816
377.50 2.814
377.60 2.811
377.70 2.809
377.80 2.806
377.90 2.803
378.00 2.801
378.10 2.798
378.20 2.795
378.30 2.793
378.40 2.79
378.50 2.787
378.60 2.784
378.70 2.781
378.80 2.779
378.90 2.776
379.00 2.773
379.10 2.77
379.20 2.768
379.30 2.765
379.40 2.762
379.50 2.759
379.60 2.756
379.70 2.754
379.80 2.751
379.90 2.748
380.00 2.745
380.10 2.743
380.20 2.741
380.30 2.739
380.40 2.737
380.50 2.735
380.60 2.733
380.70 2.731
380.80 2.729
380.90 2.727
381.00 2.725
381.10 2.723
381.20 2.72
381.30 2.718
381.40 2.715
381.50 2.712
381.60 2.71
381.70 2.707
381.80 2.704
381.90 2.701
382.00 2.698
382.10 2.694
382.20 2.691
382.30 2.687
382.40 2.683
382.50 2.68
382.60 2.676
382.70 2.672
382.80 2.668
382.90 2.664
383.00 2.661
383.10 2.657
383.20 2.653
383.30 2.649
383.40 2.646
383.50 2.642
383.60 2.64
383.70 2.639
383.80 2.638
383.90 2.638
384.00 2.637
384.10 2.637
384.20 2.636
384.30 2.636
384.40 2.635
384.50 2.634
384.60 2.633
384.70 2.632
384.80 2.631
384.90 2.63
385.00 2.629
385.10 2.627
385.20 2.626
385.30 2.624
385.40 2.622
385.50 2.621
385.60 2.618
385.70 2.616
385.80 2.614
385.90 2.612
386.00 2.609
386.10 2.606
386.20 2.603
386.30 2.6
386.40 2.597
386.50 2.594
386.60 2.59
386.70 2.587
386.80 2.583
386.90 2.579
387.00 2.575
387.10 2.57
387.20 2.566
387.30 2.561
387.40 2.556
387.50 2.551
387.60 2.546
387.70 2.541
387.80 2.535
387.90 2.529
388.00 2.523
388.10 2.517
388.20 2.511
388.30 2.505
388.40 2.498
388.50 2.492
388.60 2.486
388.70 2.481
388.80 2.477
388.90 2.474
389.00 2.472
389.10 2.472
389.20 2.473
389.30 2.475
389.40 2.477
389.50 2.479
389.60 2.481
389.70 2.482
389.80 2.484
389.90 2.486
390.00 2.487
390.10 2.489
390.20 2.49
390.30 2.491
390.40 2.492
390.50 2.492
390.60 2.493
390.70 2.493
390.80 2.493
390.90 2.493
391.00 2.493
391.10 2.493
391.20 2.492
391.30 2.492
391.40 2.491
391.50 2.49
391.60 2.489
391.70 2.488
391.80 2.487
391.90 2.486
392.00 2.484
392.10 2.483
392.20 2.481
392.30 2.479
392.40 2.477
392.50 2.475
392.60 2.473
392.70 2.471
392.80 2.469
392.90 2.466
393.00 2.464
393.10 2.461
393.20 2.458
393.30 2.455
393.40 2.452
393.50 2.449
393.60 2.446
393.70 2.443
393.80 2.439
393.90 2.435
394.00 2.432
394.10 2.428
394.20 2.424
394.30 2.419
394.40 2.415
394.50 2.41
394.60 2.405
394.70 2.4
394.80 2.395
394.90 2.39
395.00 2.384
395.10 2.378
395.20 2.372
395.30 2.365
395.40 2.358
395.50 2.351
395.60 2.344
395.70 2.336
395.80 2.328
395.90 2.32
396.00 2.311
396.10 2.302
396.20 2.293
396.30 2.283
396.40 2.274
396.50 2.264
396.60 2.253
396.70 2.243
396.80 2.232
396.90 2.222
397.00 2.212
397.10 2.217
397.20 2.223
397.30 2.23
397.40 2.236
397.50 2.242
397.60 2.248
397.70 2.254
397.80 2.259
397.90 2.264
398.00 2.269
398.10 2.273
398.20 2.278
398.30 2.281
398.40 2.285
398.50 2.288
398.60 2.291
398.70 2.293
398.80 2.296
398.90 2.298
399.00 2.299
399.10 2.301
399.20 2.302
399.30 2.303
399.40 2.304
399.50 2.305
399.60 2.305
399.70 2.306
399.80 2.306
399.90 2.306
400.00 2.306
400.10 2.305
400.20 2.305
400.30 2.305
400.40 2.304
400.50 2.303
400.60 2.302
400.70 2.301
400.80 2.3
400.90 2.299
401.00 2.298
401.10 2.297
401.20 2.296
401.30 2.295
401.40 2.293
401.50 2.292
401.60 2.29
401.70 2.289
401.80 2.287
401.90 2.285
402.00 2.284
402.10 2.282
402.20 2.28
402.30 2.279
402.40 2.277
402.50 2.275
402.60 2.273
402.70 2.271
402.80 2.269
402.90 2.267
403.00 2.265
403.10 2.263
403.20 2.261
403.30 2.259
403.40 2.257
403.50 2.255
403.60 2.253
403.70 2.251
403.80 2.249
403.90 2.247
404.00 2.244
404.10 2.242
404.20 2.24
404.30 2.238
404.40 2.235
404.50 2.233
404.60 2.231
404.70 2.228
404.80 2.226
404.90 2.223
405.00 2.221
405.10 2.218
405.20 2.216
405.30 2.213
405.40 2.21
405.50 2.208
405.60 2.205
405.70 2.202
405.80 2.199
405.90 2.196
406.00 2.193
406.10 2.19
406.20 2.187
406.30 2.184
406.40 2.18
406.50 2.177
406.60 2.174
406.70 2.17
406.80 2.166
406.90 2.162
407.00 2.158
407.10 2.154
407.20 2.15
407.30 2.146
407.40 2.141
407.50 2.136
407.60 2.131
407.70 2.126
407.80 2.121
407.90 2.115
408.00 2.109
408.10 2.103
408.20 2.096
408.30 2.089
408.40 2.082
408.50 2.074
408.60 2.066
408.70 2.058
408.80 2.049
408.90 2.039
409.00 2.03
409.10 2.02
409.20 2.009
409.30 1.998
409.40 1.986
409.50 1.973
409.60 1.961
409.70 1.947
409.80 1.933
409.90 1.918
410.00 1.905
410.10 1.898
410.20 1.898
410.30 1.898
410.40 1.904
410.50 1.915
410.60 1.926
410.70 1.936
410.80 1.946
410.90 1.955
411.00 1.963
411.10 1.971
411.20 1.978
411.30 1.985
411.40 1.991
411.50 1.997
411.60 2.002
411.70 2.007
411.80 2.011
411.90 2.015
412.00 2.019
412.10 2.022
412.20 2.025
412.30 2.027
412.40 2.029
412.50 2.031
412.60 2.033
412.70 2.034
412.80 2.035
412.90 2.036
413.00 2.037
413.10 2.037
413.20 2.038
413.30 2.038
413.40 2.038
413.50 2.038
413.60 2.038
413.70 2.038
413.80 2.037
413.90 2.037
414.00 2.036
414.10 2.035
414.20 2.035
414.30 2.034
414.40 2.033
414.50 2.032
414.60 2.031
414.70 2.03
414.80 2.029
414.90 2.028
415.00 2.026
415.10 2.025
415.20 2.024
415.30 2.023
415.40 2.021
415.50 2.02
415.60 2.019
415.70 2.017
415.80 2.016
415.90 2.014
416.00 2.013
416.10 2.011
416.20 2.01
416.30 2.008
416.40 2.007
416.50 2.005
416.60 2.004
416.70 2.002
416.80 2
416.90 1.999
417.00 1.997
417.10 1.996
417.20 1.994
417.30 1.992
417.40 1.991
417.50 1.989
417.60 1.987
417.70 1.986
417.80 1.984
417.90 1.982
418.00 1.981
418.10 1.979
418.20 1.977
418.30 1.976
418.40 1.974
418.50 1.972
418.60 1.971
418.70 1.969
418.80 1.967
418.90 1.965
419.00 1.964
419.10 1.962
419.20 1.96
419.30 1.959
419.40 1.957
419.50 1.955
419.60 1.953
419.70 1.952
419.80 1.95
419.90 1.948
420.00 1.947
420.10 1.945
420.20 1.943
420.30 1.941
420.40 1.94
420.50 1.938
420.60 1.936
420.70 1.934
420.80 1.933
420.90 1.931
421.00 1.929
421.10 1.928
421.20 1.926
421.30 1.924
421.40 1.922
421.50 1.921
421.60 1.919
421.70 1.917
421.80 1.915
421.90 1.914
422.00 1.912
422.10 1.91
422.20 1.909
422.30 1.907
422.40 1.905
422.50 1.903
422.60 1.902
422.70 1.9
422.80 1.898
422.90 1.896
423.00 1.895
423.10 1.893
423.20 1.891
423.30 1.89
423.40 1.888
423.50 1.886
423.60 1.884
423.70 1.883
423.80 1.881
423.90 1.879
424.00 1.877
424.10 1.876
424.20 1.874
424.30 1.872
424.40 1.871
424.50 1.869
424.60 1.867
424.70 1.865
424.80 1.864
424.90 1.862
425.00 1.86
425.10 1.858
425.20 1.857
425.30 1.855
425.40 1.853
425.50 1.851
425.60 1.85
425.70 1.848
425.80 1.846
425.90 1.844
426.00 1.843
426.10 1.841
426.20 1.839
426.30 1.837
426.40 1.836
426.50 1.834
426.60 1.832
426.70 1.83
426.80 1.828
426.90 1.827
427.00 1.825
427.10 1.823
427.20 1.821
427.30 1.819
427.40 1.818
427.50 1.816
427.60 1.814
427.70 1.812
427.80 1.81
427.90 1.808
428.00 1.806
428.10 1.805
428.20 1.803
428.30 1.801
428.40 1.799
428.50 1.797
428.60 1.795
428.70 1.793
428.80 1.791
428.90 1.789
429.00 1.787
429.10 1.785
429.20 1.782
429.30 1.78
429.40 1.778
429.50 1.776
429.60 1.774
429.70 1.771
429.80 1.769
429.90 1.767
430.00 1.764
430.10 1.762
430.20 1.759
430.30 1.756
430.40 1.754
430.50 1.751
430.60 1.748
430.70 1.745
430.80 1.742
430.90 1.739
431.00 1.735
431.10 1.732
431.20 1.728
431.30 1.724
431.40 1.72
431.50 1.716
431.60 1.712
431.70 1.707
431.80 1.702
431.90 1.697
432.00 1.691
432.10 1.686
432.20 1.68
432.30 1.673
432.40 1.667
432.50 1.659
432.60 1.651
432.70 1.643
432.80 1.635
432.90 1.626
433.00 1.616
433.10 1.606
433.20 1.595
433.30 1.584
433.40 1.572
433.50 1.559
433.60 1.546
433.70 1.531
433.80 1.515
433.90 1.499
434.00 1.484
434.10 1.483
434.20 1.496
434.30 1.51
434.40 1.523
434.50 1.535
434.60 1.546
434.70 1.555
434.80 1.565
434.90 1.573
435.00 1.581
435.10 1.588
435.20 1.595
435.30 1.601
435.40 1.607
435.50 1.612
435.60 1.617
435.70 1.621
435.80 1.625
435.90 1.628
436.00 1.631
436.10 1.634
436.20 1.636
436.30 1.638
436.40 1.64
436.50 1.641
436.60 1.643
436.70 1.644
436.80 1.645
436.90 1.645
437.00 1.646
437.10 1.646
437.20 1.647
437.30 1.647
437.40 1.647
437.50 1.647
437.60 1.647
437.70 1.646
437.80 1.646
437.90 1.645
438.00 1.645
438.10 1.644
438.20 1.644
438.30 1.643
438.40 1.642
438.50 1.642
438.60 1.641
438.70 1.64
438.80 1.639
438.90 1.638
439.00 1.637
439.10 1.636
439.20 1.635
439.30 1.634
439.40 1.633
439.50 1.632
439.60 1.631
439.70 1.63
439.80 1.629
439.90 1.628
440.00 1.626
440.10 1.625
440.20 1.624
440.30 1.623
440.40 1.622
440.50 1.621
440.60 1.619
440.70 1.618
440.80 1.617
440.90 1.616
441.00 1.614
441.10 1.613
441.20 1.612
441.30 1.611
441.40 1.609
441.50 1.608
441.60 1.607
441.70 1.606
441.80 1.604
441.90 1.603
442.00 1.602
442.10 1.6
442.20 1.599
442.30 1.598
442.40 1.597
442.50 1.595
442.60 1.594
442.70 1.593
442.80 1.591
442.90 1.59
443.00 1.589
443.10 1.587
443.20 1.586
443.30 1.585
443.40 1.583
443.50 1.582
443.60 1.581
443.70 1.58
443.80 1.578
443.90 1.577
444.00 1.576
444.10 1.574
444.20 1.573
444.30 1.572
444.40 1.57
444.50 1.569
444.60 1.568
444.70 1.566
444.80 1.565
444.90 1.564
445.00 1.562
445.10 1.561
445.20 1.56
445.30 1.559
445.40 1.557
445.50 1.556
445.60 1.555
445.70 1.553
445.80 1.552
445.90 1.551
446.00 1.549
446.10 1.548
446.20 1.547
446.30 1.545
446.40 1.544
446.50 1.543
446.60 1.542
446.70 1.54
446.80 1.539
446.90 1.538
447.00 1.536
447.10 1.535
447.20 1.534
447.30 1.532
447.40 1.531
447.50 1.53
447.60 1.529
447.70 1.527
447.80 1.526
447.90 1.525
448.00 1.523
448.10 1.522
448.20 1.521
448.30 1.52
448.40 1.518
448.50 1.517
448.60 1.516
448.70 1.514
448.80 1.513
448.90 1.512
449.00 1.511
449.10 1.509
449.20 1.508
449.30 1.507
449.40 1.505
449.50 1.504
449.60 1.503
449.70 1.502
449.80 1.5
449.90 1.499
450.00 1.498
450.10 1.497
450.20 1.495
450.30 1.494
450.40 1.493
450.50 1.492
450.60 1.49
450.70 1.489
450.80 1.488
450.90 1.486
451.00 1.485
451.10 1.484
451.20 1.483
451.30 1.481
451.40 1.48
451.50 1.479
451.60 1.478
451.70 1.476
451.80 1.475
451.90 1.474
452.00 1.473
452.10 1.471
452.20 1.47
452.30 1.469
452.40 1.468
452.50 1.467
452.60 1.465
452.70 1.464
452.80 1.463
452.90 1.462
453.00 1.46
453.10 1.459
453.20 1.458
453.30 1.457
453.40 1.455
453.50 1.454
453.60 1.453
453.70 1.452
453.80 1.451
453.90 1.449
454.00 1.448
