# Version 2.1 - nm, norm@500 to 1, cut digits, bergeron_90000_85.dat_90000
# Wavelength(nm)  Flambda(ergs/cm^s/s/nm)
300.00 6.769
300.10 6.76
300.20 6.752
300.30 6.743
300.40 6.735
300.50 6.727
300.60 6.718
300.70 6.71
300.80 6.701
300.90 6.693
301.00 6.685
301.10 6.676
301.20 6.668
301.30 6.66
301.40 6.651
301.50 6.643
301.60 6.635
301.70 6.627
301.80 6.618
301.90 6.61
302.00 6.602
302.10 6.594
302.20 6.586
302.30 6.577
302.40 6.569
302.50 6.561
302.60 6.553
302.70 6.545
302.80 6.537
302.90 6.529
303.00 6.521
303.10 6.513
303.20 6.504
303.30 6.496
303.40 6.488
303.50 6.48
303.60 6.472
303.70 6.464
303.80 6.456
303.90 6.448
304.00 6.44
304.10 6.432
304.20 6.425
304.30 6.417
304.40 6.409
304.50 6.401
304.60 6.393
304.70 6.385
304.80 6.377
304.90 6.369
305.00 6.362
305.10 6.354
305.20 6.346
305.30 6.338
305.40 6.33
305.50 6.323
305.60 6.315
305.70 6.307
305.80 6.299
305.90 6.291
306.00 6.284
306.10 6.276
306.20 6.268
306.30 6.261
306.40 6.253
306.50 6.245
306.60 6.238
306.70 6.23
306.80 6.222
306.90 6.215
307.00 6.207
307.10 6.2
307.20 6.192
307.30 6.185
307.40 6.177
307.50 6.169
307.60 6.162
307.70 6.154
307.80 6.147
307.90 6.139
308.00 6.132
308.10 6.124
308.20 6.117
308.30 6.109
308.40 6.102
308.50 6.095
308.60 6.087
308.70 6.08
308.80 6.072
308.90 6.065
309.00 6.058
309.10 6.05
309.20 6.043
309.30 6.036
309.40 6.028
309.50 6.021
309.60 6.014
309.70 6.006
309.80 5.999
309.90 5.992
310.00 5.985
310.10 5.977
310.20 5.97
310.30 5.963
310.40 5.956
310.50 5.948
310.60 5.941
310.70 5.934
310.80 5.927
310.90 5.92
311.00 5.913
311.10 5.905
311.20 5.898
311.30 5.891
311.40 5.884
311.50 5.877
311.60 5.87
311.70 5.863
311.80 5.856
311.90 5.849
312.00 5.842
312.10 5.835
312.20 5.828
312.30 5.821
312.40 5.814
312.50 5.807
312.60 5.8
312.70 5.793
312.80 5.786
312.90 5.779
313.00 5.772
313.10 5.765
313.20 5.758
313.30 5.751
313.40 5.744
313.50 5.737
313.60 5.73
313.70 5.723
313.80 5.717
313.90 5.71
314.00 5.703
314.10 5.696
314.20 5.689
314.30 5.682
314.40 5.676
314.50 5.669
314.60 5.662
314.70 5.655
314.80 5.649
314.90 5.642
315.00 5.635
315.10 5.628
315.20 5.622
315.30 5.615
315.40 5.608
315.50 5.602
315.60 5.595
315.70 5.588
315.80 5.582
315.90 5.575
316.00 5.568
316.10 5.562
316.20 5.555
316.30 5.549
316.40 5.542
316.50 5.535
316.60 5.529
316.70 5.522
316.80 5.516
316.90 5.509
317.00 5.503
317.10 5.496
317.20 5.49
317.30 5.483
317.40 5.477
317.50 5.47
317.60 5.464
317.70 5.457
317.80 5.451
317.90 5.444
318.00 5.438
318.10 5.431
318.20 5.425
318.30 5.419
318.40 5.412
318.50 5.406
318.60 5.399
318.70 5.393
318.80 5.387
318.90 5.38
319.00 5.374
319.10 5.368
319.20 5.361
319.30 5.355
319.40 5.349
319.50 5.342
319.60 5.336
319.70 5.33
319.80 5.323
319.90 5.317
320.00 5.311
320.10 5.305
320.20 5.298
320.30 5.292
320.40 5.286
320.50 5.28
320.60 5.274
320.70 5.267
320.80 5.261
320.90 5.255
321.00 5.249
321.10 5.243
321.20 5.237
321.30 5.231
321.40 5.224
321.50 5.218
321.60 5.212
321.70 5.206
321.80 5.2
321.90 5.194
322.00 5.188
322.10 5.182
322.20 5.176
322.30 5.17
322.40 5.164
322.50 5.158
322.60 5.152
322.70 5.146
322.80 5.14
322.90 5.134
323.00 5.128
323.10 5.122
323.20 5.116
323.30 5.11
323.40 5.104
323.50 5.098
323.60 5.092
323.70 5.086
323.80 5.08
323.90 5.074
324.00 5.068
324.10 5.062
324.20 5.057
324.30 5.051
324.40 5.045
324.50 5.039
324.60 5.033
324.70 5.027
324.80 5.021
324.90 5.016
325.00 5.01
325.10 5.004
325.20 4.998
325.30 4.992
325.40 4.987
325.50 4.981
325.60 4.975
325.70 4.969
325.80 4.964
325.90 4.958
326.00 4.952
326.10 4.946
326.20 4.941
326.30 4.935
326.40 4.929
326.50 4.924
326.60 4.918
326.70 4.912
326.80 4.907
326.90 4.901
327.00 4.895
327.10 4.89
327.20 4.884
327.30 4.879
327.40 4.873
327.50 4.867
327.60 4.862
327.70 4.856
327.80 4.851
327.90 4.845
328.00 4.839
328.10 4.834
328.20 4.828
328.30 4.823
328.40 4.817
328.50 4.812
328.60 4.806
328.70 4.801
328.80 4.795
328.90 4.79
329.00 4.784
329.10 4.779
329.20 4.773
329.30 4.768
329.40 4.762
329.50 4.757
329.60 4.751
329.70 4.746
329.80 4.741
329.90 4.735
330.00 4.73
330.10 4.724
330.20 4.719
330.30 4.714
330.40 4.708
330.50 4.703
330.60 4.698
330.70 4.692
330.80 4.687
330.90 4.682
331.00 4.676
331.10 4.671
331.20 4.666
331.30 4.66
331.40 4.655
331.50 4.65
331.60 4.644
331.70 4.639
331.80 4.634
331.90 4.629
332.00 4.623
332.10 4.618
332.20 4.613
332.30 4.608
332.40 4.602
332.50 4.597
332.60 4.592
332.70 4.587
332.80 4.582
332.90 4.576
333.00 4.571
333.10 4.566
333.20 4.561
333.30 4.556
333.40 4.551
333.50 4.545
333.60 4.54
333.70 4.535
333.80 4.53
333.90 4.525
334.00 4.52
334.10 4.515
334.20 4.51
334.30 4.505
334.40 4.5
334.50 4.494
334.60 4.489
334.70 4.484
334.80 4.479
334.90 4.474
335.00 4.469
335.10 4.464
335.20 4.459
335.30 4.454
335.40 4.449
335.50 4.444
335.60 4.439
335.70 4.434
335.80 4.429
335.90 4.424
336.00 4.419
336.10 4.414
336.20 4.409
336.30 4.404
336.40 4.399
336.50 4.395
336.60 4.39
336.70 4.385
336.80 4.38
336.90 4.375
337.00 4.37
337.10 4.365
337.20 4.36
337.30 4.355
337.40 4.351
337.50 4.346
337.60 4.341
337.70 4.336
337.80 4.331
337.90 4.326
338.00 4.321
338.10 4.317
338.20 4.312
338.30 4.307
338.40 4.302
338.50 4.297
338.60 4.293
338.70 4.288
338.80 4.283
338.90 4.278
339.00 4.274
339.10 4.269
339.20 4.264
339.30 4.259
339.40 4.255
339.50 4.25
339.60 4.245
339.70 4.24
339.80 4.236
339.90 4.231
340.00 4.226
340.10 4.222
340.20 4.217
340.30 4.212
340.40 4.208
340.50 4.203
340.60 4.198
340.70 4.194
340.80 4.189
340.90 4.184
341.00 4.18
341.10 4.175
341.20 4.171
341.30 4.166
341.40 4.161
341.50 4.157
341.60 4.152
341.70 4.147
341.80 4.143
341.90 4.138
342.00 4.134
342.10 4.129
342.20 4.125
342.30 4.12
342.40 4.116
342.50 4.111
342.60 4.107
342.70 4.102
342.80 4.098
342.90 4.093
343.00 4.089
343.10 4.084
343.20 4.08
343.30 4.075
343.40 4.071
343.50 4.066
343.60 4.062
343.70 4.057
343.80 4.053
343.90 4.048
344.00 4.044
344.10 4.039
344.20 4.035
344.30 4.031
344.40 4.026
344.50 4.022
344.60 4.017
344.70 4.013
344.80 4.009
344.90 4.004
345.00 4
345.10 3.995
345.20 3.991
345.30 3.987
345.40 3.982
345.50 3.978
345.60 3.974
345.70 3.969
345.80 3.965
345.90 3.961
346.00 3.956
346.10 3.952
346.20 3.948
346.30 3.943
346.40 3.939
346.50 3.935
346.60 3.93
346.70 3.926
346.80 3.922
346.90 3.918
347.00 3.913
347.10 3.909
347.20 3.905
347.30 3.901
347.40 3.896
347.50 3.892
347.60 3.888
347.70 3.884
347.80 3.879
347.90 3.875
348.00 3.871
348.10 3.867
348.20 3.863
348.30 3.858
348.40 3.854
348.50 3.85
348.60 3.846
348.70 3.842
348.80 3.838
348.90 3.834
349.00 3.829
349.10 3.825
349.20 3.821
349.30 3.817
349.40 3.813
349.50 3.809
349.60 3.805
349.70 3.8
349.80 3.796
349.90 3.792
350.00 3.788
350.10 3.784
350.20 3.78
350.30 3.776
350.40 3.772
350.50 3.768
350.60 3.764
350.70 3.76
350.80 3.756
350.90 3.752
351.00 3.748
351.10 3.744
351.20 3.74
351.30 3.735
351.40 3.731
351.50 3.727
351.60 3.723
351.70 3.719
351.80 3.715
351.90 3.711
352.00 3.707
352.10 3.703
352.20 3.7
352.30 3.696
352.40 3.692
352.50 3.688
352.60 3.684
352.70 3.68
352.80 3.676
352.90 3.672
353.00 3.668
353.10 3.664
353.20 3.66
353.30 3.656
353.40 3.652
353.50 3.648
353.60 3.644
353.70 3.641
353.80 3.637
353.90 3.633
354.00 3.629
354.10 3.625
354.20 3.621
354.30 3.617
354.40 3.613
354.50 3.61
354.60 3.606
354.70 3.602
354.80 3.598
354.90 3.594
355.00 3.59
355.10 3.587
355.20 3.583
355.30 3.579
355.40 3.575
355.50 3.571
355.60 3.568
355.70 3.564
355.80 3.56
355.90 3.556
356.00 3.552
356.10 3.549
356.20 3.545
356.30 3.541
356.40 3.537
356.50 3.534
356.60 3.53
356.70 3.526
356.80 3.522
356.90 3.519
357.00 3.515
357.10 3.511
357.20 3.508
357.30 3.504
357.40 3.5
357.50 3.496
357.60 3.493
357.70 3.489
357.80 3.485
357.90 3.482
358.00 3.478
358.10 3.474
358.20 3.471
358.30 3.467
358.40 3.463
358.50 3.46
358.60 3.456
358.70 3.452
358.80 3.449
358.90 3.445
359.00 3.442
359.10 3.438
359.20 3.434
359.30 3.431
359.40 3.427
359.50 3.423
359.60 3.42
359.70 3.416
359.80 3.413
359.90 3.409
360.00 3.405
360.10 3.402
360.20 3.398
360.30 3.395
360.40 3.391
360.50 3.388
360.60 3.384
360.70 3.381
360.80 3.377
360.90 3.374
361.00 3.37
361.10 3.366
361.20 3.363
361.30 3.359
361.40 3.356
361.50 3.352
361.60 3.349
361.70 3.345
361.80 3.342
361.90 3.338
362.00 3.335
362.10 3.331
362.20 3.328
362.30 3.324
362.40 3.321
362.50 3.317
362.60 3.314
362.70 3.311
362.80 3.307
362.90 3.304
363.00 3.3
363.10 3.297
363.20 3.293
363.30 3.29
363.40 3.287
363.50 3.283
363.60 3.28
363.70 3.276
363.80 3.273
363.90 3.269
364.00 3.266
364.10 3.263
364.20 3.259
364.30 3.256
364.40 3.253
364.50 3.249
364.60 3.246
364.70 3.242
364.80 3.239
364.90 3.236
365.00 3.232
365.10 3.229
365.20 3.226
365.30 3.222
365.40 3.219
365.50 3.216
365.60 3.212
365.70 3.209
365.80 3.206
365.90 3.202
366.00 3.199
366.10 3.196
366.20 3.192
366.30 3.189
366.40 3.186
366.50 3.182
366.60 3.179
366.70 3.176
366.80 3.173
366.90 3.169
367.00 3.166
367.10 3.163
367.20 3.159
367.30 3.156
367.40 3.153
367.50 3.149
367.60 3.146
367.70 3.143
367.80 3.14
367.90 3.136
368.00 3.133
368.10 3.13
368.20 3.127
368.30 3.123
368.40 3.12
368.50 3.117
368.60 3.113
368.70 3.11
368.80 3.107
368.90 3.104
369.00 3.1
369.10 3.097
369.20 3.094
369.30 3.091
369.40 3.087
369.50 3.084
369.60 3.081
369.70 3.078
369.80 3.074
369.90 3.071
370.00 3.068
370.10 3.065
370.20 3.062
370.30 3.058
370.40 3.055
370.50 3.052
370.60 3.049
370.70 3.046
370.80 3.043
370.90 3.039
371.00 3.036
371.10 3.033
371.20 3.03
371.30 3.027
371.40 3.024
371.50 3.02
371.60 3.017
371.70 3.014
371.80 3.011
371.90 3.008
372.00 3.005
372.10 3.002
372.20 2.999
372.30 2.996
372.40 2.993
372.50 2.99
372.60 2.987
372.70 2.983
372.80 2.98
372.90 2.977
373.00 2.974
373.10 2.971
373.20 2.968
373.30 2.965
373.40 2.962
373.50 2.959
373.60 2.956
373.70 2.953
373.80 2.95
373.90 2.947
374.00 2.944
374.10 2.941
374.20 2.938
374.30 2.935
374.40 2.932
374.50 2.929
374.60 2.926
374.70 2.923
374.80 2.92
374.90 2.917
375.00 2.914
375.10 2.911
375.20 2.908
375.30 2.905
375.40 2.902
375.50 2.899
375.60 2.896
375.70 2.893
375.80 2.89
375.90 2.887
376.00 2.884
376.10 2.881
376.20 2.878
376.30 2.875
376.40 2.872
376.50 2.869
376.60 2.867
376.70 2.864
376.80 2.861
376.90 2.858
377.00 2.855
377.10 2.852
377.20 2.849
377.30 2.846
377.40 2.843
377.50 2.84
377.60 2.838
377.70 2.835
377.80 2.832
377.90 2.829
378.00 2.826
378.10 2.823
378.20 2.82
378.30 2.818
378.40 2.815
378.50 2.812
378.60 2.809
378.70 2.806
378.80 2.804
378.90 2.801
379.00 2.798
379.10 2.795
379.20 2.792
379.30 2.79
379.40 2.787
379.50 2.784
379.60 2.781
379.70 2.778
379.80 2.776
379.90 2.773
380.00 2.77
380.10 2.767
380.20 2.765
380.30 2.762
380.40 2.759
380.50 2.757
380.60 2.754
380.70 2.751
380.80 2.748
380.90 2.746
381.00 2.743
381.10 2.74
381.20 2.738
381.30 2.735
381.40 2.732
381.50 2.729
381.60 2.727
381.70 2.724
381.80 2.721
381.90 2.719
382.00 2.716
382.10 2.713
382.20 2.711
382.30 2.708
382.40 2.706
382.50 2.703
382.60 2.7
382.70 2.698
382.80 2.695
382.90 2.692
383.00 2.69
383.10 2.687
383.20 2.685
383.30 2.682
383.40 2.679
383.50 2.677
383.60 2.674
383.70 2.672
383.80 2.669
383.90 2.667
384.00 2.664
384.10 2.662
384.20 2.659
384.30 2.657
384.40 2.654
384.50 2.652
384.60 2.649
384.70 2.647
384.80 2.644
384.90 2.642
385.00 2.639
385.10 2.637
385.20 2.634
385.30 2.632
385.40 2.629
385.50 2.627
385.60 2.624
385.70 2.622
385.80 2.619
385.90 2.617
386.00 2.614
386.10 2.612
386.20 2.609
386.30 2.606
386.40 2.604
386.50 2.601
386.60 2.599
386.70 2.596
386.80 2.594
386.90 2.591
387.00 2.589
387.10 2.586
387.20 2.584
387.30 2.581
387.40 2.579
387.50 2.576
387.60 2.573
387.70 2.571
387.80 2.568
387.90 2.566
388.00 2.563
388.10 2.561
388.20 2.558
388.30 2.556
388.40 2.553
388.50 2.551
388.60 2.549
388.70 2.546
388.80 2.544
388.90 2.542
389.00 2.539
389.10 2.537
389.20 2.535
389.30 2.533
389.40 2.53
389.50 2.528
389.60 2.526
389.70 2.524
389.80 2.522
389.90 2.52
390.00 2.517
390.10 2.515
390.20 2.513
390.30 2.511
390.40 2.509
390.50 2.507
390.60 2.505
390.70 2.502
390.80 2.5
390.90 2.498
391.00 2.496
391.10 2.494
391.20 2.492
391.30 2.489
391.40 2.487
391.50 2.485
391.60 2.483
391.70 2.48
391.80 2.478
391.90 2.476
392.00 2.473
392.10 2.471
392.20 2.469
392.30 2.466
392.40 2.464
392.50 2.462
392.60 2.459
392.70 2.457
392.80 2.454
392.90 2.452
393.00 2.449
393.10 2.447
393.20 2.444
393.30 2.442
393.40 2.439
393.50 2.436
393.60 2.434
393.70 2.431
393.80 2.429
393.90 2.426
394.00 2.423
394.10 2.421
394.20 2.418
394.30 2.415
394.40 2.412
394.50 2.41
394.60 2.407
394.70 2.404
394.80 2.401
394.90 2.398
395.00 2.395
395.10 2.392
395.20 2.39
395.30 2.387
395.40 2.384
395.50 2.381
395.60 2.378
395.70 2.375
395.80 2.372
395.90 2.369
396.00 2.366
396.10 2.363
396.20 2.36
396.30 2.358
396.40 2.355
396.50 2.352
396.60 2.349
396.70 2.346
396.80 2.344
396.90 2.341
397.00 2.339
397.10 2.337
397.20 2.336
397.30 2.334
397.40 2.333
397.50 2.331
397.60 2.33
397.70 2.329
397.80 2.327
397.90 2.326
398.00 2.325
398.10 2.324
398.20 2.323
398.30 2.321
398.40 2.32
398.50 2.319
398.60 2.318
398.70 2.317
398.80 2.315
398.90 2.314
399.00 2.313
399.10 2.312
399.20 2.31
399.30 2.309
399.40 2.308
399.50 2.306
399.60 2.305
399.70 2.303
399.80 2.302
399.90 2.301
400.00 2.299
400.10 2.298
400.20 2.296
400.30 2.295
400.40 2.293
400.50 2.292
400.60 2.29
400.70 2.288
400.80 2.287
400.90 2.285
401.00 2.283
401.10 2.282
401.20 2.28
401.30 2.278
401.40 2.276
401.50 2.275
401.60 2.273
401.70 2.271
401.80 2.269
401.90 2.267
402.00 2.265
402.10 2.263
402.20 2.261
402.30 2.259
402.40 2.257
402.50 2.255
402.60 2.253
402.70 2.251
402.80 2.249
402.90 2.247
403.00 2.245
403.10 2.243
403.20 2.241
403.30 2.238
403.40 2.236
403.50 2.234
403.60 2.232
403.70 2.229
403.80 2.227
403.90 2.225
404.00 2.222
404.10 2.22
404.20 2.217
404.30 2.215
404.40 2.212
404.50 2.21
404.60 2.207
404.70 2.205
404.80 2.202
404.90 2.199
405.00 2.197
405.10 2.194
405.20 2.191
405.30 2.188
405.40 2.186
405.50 2.183
405.60 2.18
405.70 2.177
405.80 2.174
405.90 2.171
406.00 2.168
406.10 2.165
406.20 2.162
406.30 2.159
406.40 2.156
406.50 2.152
406.60 2.149
406.70 2.146
406.80 2.142
406.90 2.139
407.00 2.136
407.10 2.132
407.20 2.129
407.30 2.125
407.40 2.121
407.50 2.118
407.60 2.114
407.70 2.11
407.80 2.107
407.90 2.103
408.00 2.099
408.10 2.095
408.20 2.091
408.30 2.087
408.40 2.083
408.50 2.079
408.60 2.075
408.70 2.071
408.80 2.067
408.90 2.063
409.00 2.059
409.10 2.055
409.20 2.051
409.30 2.047
409.40 2.044
409.50 2.04
409.60 2.037
409.70 2.034
409.80 2.032
409.90 2.03
410.00 2.029
410.10 2.028
410.20 2.027
410.30 2.024
410.40 2.021
410.50 2.019
410.60 2.018
410.70 2.017
410.80 2.016
410.90 2.016
411.00 2.016
411.10 2.016
411.20 2.017
411.30 2.017
411.40 2.017
411.50 2.018
411.60 2.018
411.70 2.018
411.80 2.019
411.90 2.019
412.00 2.019
412.10 2.02
412.20 2.02
412.30 2.02
412.40 2.02
412.50 2.02
412.60 2.02
412.70 2.02
412.80 2.02
412.90 2.02
413.00 2.02
413.10 2.02
413.20 2.02
413.30 2.02
413.40 2.02
413.50 2.019
413.60 2.019
413.70 2.018
413.80 2.018
413.90 2.018
414.00 2.017
414.10 2.016
414.20 2.016
414.30 2.015
414.40 2.015
414.50 2.014
414.60 2.013
414.70 2.012
414.80 2.012
414.90 2.011
415.00 2.01
415.10 2.009
415.20 2.008
415.30 2.007
415.40 2.006
415.50 2.005
415.60 2.004
415.70 2.003
415.80 2.002
415.90 2.001
416.00 2
416.10 1.999
416.20 1.998
416.30 1.996
416.40 1.995
416.50 1.994
416.60 1.993
416.70 1.991
416.80 1.99
416.90 1.989
417.00 1.988
417.10 1.986
417.20 1.985
417.30 1.984
417.40 1.982
417.50 1.981
417.60 1.979
417.70 1.978
417.80 1.977
417.90 1.975
418.00 1.974
418.10 1.972
418.20 1.971
418.30 1.969
418.40 1.968
418.50 1.966
418.60 1.965
418.70 1.963
418.80 1.962
418.90 1.96
419.00 1.959
419.10 1.957
419.20 1.956
419.30 1.954
419.40 1.952
419.50 1.951
419.60 1.949
419.70 1.948
419.80 1.946
419.90 1.944
420.00 1.943
420.10 1.941
420.20 1.94
420.30 1.938
420.40 1.936
420.50 1.935
420.60 1.933
420.70 1.931
420.80 1.93
420.90 1.928
421.00 1.926
421.10 1.925
421.20 1.923
421.30 1.921
421.40 1.92
421.50 1.918
421.60 1.916
421.70 1.914
421.80 1.913
421.90 1.911
422.00 1.909
422.10 1.907
422.20 1.906
422.30 1.904
422.40 1.902
422.50 1.9
422.60 1.899
422.70 1.897
422.80 1.895
422.90 1.893
423.00 1.892
423.10 1.89
423.20 1.888
423.30 1.886
423.40 1.884
423.50 1.883
423.60 1.881
423.70 1.879
423.80 1.877
423.90 1.875
424.00 1.873
424.10 1.871
424.20 1.87
424.30 1.868
424.40 1.866
424.50 1.864
424.60 1.862
424.70 1.86
424.80 1.858
424.90 1.856
425.00 1.854
425.10 1.852
425.20 1.851
425.30 1.849
425.40 1.847
425.50 1.845
425.60 1.843
425.70 1.841
425.80 1.839
425.90 1.837
426.00 1.835
426.10 1.832
426.20 1.83
426.30 1.828
426.40 1.826
426.50 1.824
426.60 1.822
426.70 1.82
426.80 1.818
426.90 1.815
427.00 1.813
427.10 1.811
427.20 1.809
427.30 1.807
427.40 1.804
427.50 1.802
427.60 1.8
427.70 1.797
427.80 1.795
427.90 1.793
428.00 1.79
428.10 1.788
428.20 1.785
428.30 1.783
428.40 1.78
428.50 1.778
428.60 1.775
428.70 1.772
428.80 1.77
428.90 1.767
429.00 1.764
429.10 1.762
429.20 1.759
429.30 1.756
429.40 1.753
429.50 1.75
429.60 1.747
429.70 1.744
429.80 1.741
429.90 1.738
430.00 1.735
430.10 1.731
430.20 1.728
430.30 1.725
430.40 1.721
430.50 1.718
430.60 1.714
430.70 1.711
430.80 1.707
430.90 1.703
431.00 1.7
431.10 1.696
431.20 1.692
431.30 1.688
431.40 1.684
431.50 1.68
431.60 1.676
431.70 1.671
431.80 1.667
431.90 1.663
432.00 1.658
432.10 1.654
432.20 1.649
432.30 1.645
432.40 1.64
432.50 1.636
432.60 1.631
432.70 1.626
432.80 1.622
432.90 1.617
433.00 1.612
433.10 1.608
433.20 1.603
433.30 1.598
433.40 1.594
433.50 1.589
433.60 1.585
433.70 1.58
433.80 1.575
433.90 1.569
434.00 1.565
434.10 1.564
434.20 1.566
434.30 1.568
434.40 1.571
434.50 1.573
434.60 1.575
434.70 1.577
434.80 1.579
434.90 1.58
435.00 1.582
435.10 1.584
435.20 1.586
435.30 1.588
435.40 1.59
435.50 1.592
435.60 1.594
435.70 1.596
435.80 1.597
435.90 1.599
436.00 1.601
436.10 1.602
436.20 1.604
436.30 1.605
436.40 1.607
436.50 1.608
436.60 1.609
436.70 1.61
436.80 1.611
436.90 1.612
437.00 1.613
437.10 1.614
437.20 1.615
437.30 1.616
437.40 1.616
437.50 1.617
437.60 1.617
437.70 1.618
437.80 1.618
437.90 1.618
438.00 1.619
438.10 1.619
438.20 1.619
438.30 1.619
438.40 1.619
438.50 1.619
438.60 1.619
438.70 1.619
438.80 1.619
438.90 1.619
439.00 1.618
439.10 1.618
439.20 1.618
439.30 1.618
439.40 1.617
439.50 1.617
439.60 1.616
439.70 1.616
439.80 1.615
439.90 1.615
440.00 1.614
440.10 1.613
440.20 1.613
440.30 1.612
440.40 1.611
440.50 1.611
440.60 1.61
440.70 1.609
440.80 1.608
440.90 1.608
441.00 1.607
441.10 1.606
441.20 1.605
441.30 1.604
441.40 1.603
441.50 1.602
441.60 1.601
441.70 1.6
441.80 1.599
441.90 1.599
442.00 1.598
442.10 1.597
442.20 1.596
442.30 1.595
442.40 1.593
442.50 1.592
442.60 1.591
442.70 1.59
442.80 1.589
442.90 1.588
443.00 1.587
443.10 1.586
443.20 1.585
443.30 1.584
443.40 1.583
443.50 1.582
443.60 1.58
443.70 1.579
443.80 1.578
443.90 1.577
444.00 1.576
444.10 1.575
444.20 1.573
444.30 1.572
444.40 1.571
444.50 1.57
444.60 1.569
444.70 1.568
444.80 1.566
444.90 1.565
445.00 1.564
445.10 1.563
445.20 1.562
445.30 1.56
445.40 1.559
445.50 1.558
445.60 1.557
445.70 1.556
445.80 1.554
445.90 1.553
446.00 1.552
446.10 1.551
446.20 1.549
446.30 1.548
446.40 1.547
446.50 1.546
446.60 1.544
446.70 1.543
446.80 1.542
446.90 1.541
447.00 1.54
447.10 1.538
447.20 1.537
447.30 1.536
447.40 1.535
447.50 1.533
447.60 1.532
447.70 1.531
447.80 1.53
447.90 1.528
448.00 1.527
448.10 1.526
448.20 1.525
448.30 1.523
448.40 1.522
448.50 1.521
448.60 1.52
448.70 1.518
448.80 1.517
448.90 1.516
449.00 1.515
449.10 1.513
449.20 1.512
449.30 1.511
449.40 1.51
449.50 1.508
449.60 1.507
449.70 1.506
449.80 1.505
449.90 1.503
450.00 1.502
450.10 1.501
450.20 1.5
450.30 1.498
450.40 1.497
450.50 1.496
450.60 1.495
450.70 1.493
450.80 1.492
450.90 1.491
451.00 1.49
451.10 1.488
451.20 1.487
451.30 1.486
451.40 1.485
451.50 1.483
451.60 1.482
451.70 1.481
451.80 1.48
451.90 1.479
452.00 1.477
452.10 1.476
452.20 1.475
452.30 1.474
452.40 1.472
452.50 1.471
452.60 1.47
452.70 1.469
452.80 1.467
452.90 1.466
453.00 1.465
453.10 1.464
453.20 1.463
453.30 1.461
453.40 1.46
453.50 1.459
453.60 1.458
453.70 1.456
453.80 1.455
453.90 1.454
454.00 1.453
454.10 1.452
454.20 1.45
