# Version 2.1 - nm, norm@500 to 1, cut digits, bergeron_10500_80.dat_10500
# Wavelength(nm)  Flambda(ergs/cm^s/s/nm)
300.00 1.7
300.10 1.7
300.20 1.699
300.30 1.698
300.40 1.697
300.50 1.697
300.60 1.696
300.70 1.695
300.80 1.694
300.90 1.693
301.00 1.693
301.10 1.692
301.20 1.691
301.30 1.69
301.40 1.69
301.50 1.689
301.60 1.688
301.70 1.687
301.80 1.686
301.90 1.686
302.00 1.685
302.10 1.684
302.20 1.683
302.30 1.683
302.40 1.682
302.50 1.681
302.60 1.68
302.70 1.679
302.80 1.679
302.90 1.678
303.00 1.677
303.10 1.676
303.20 1.676
303.30 1.675
303.40 1.674
303.50 1.673
303.60 1.673
303.70 1.672
303.80 1.671
303.90 1.67
304.00 1.669
304.10 1.669
304.20 1.668
304.30 1.667
304.40 1.666
304.50 1.666
304.60 1.665
304.70 1.664
304.80 1.663
304.90 1.662
305.00 1.662
305.10 1.661
305.20 1.66
305.30 1.659
305.40 1.659
305.50 1.658
305.60 1.657
305.70 1.656
305.80 1.656
305.90 1.655
306.00 1.654
306.10 1.653
306.20 1.652
306.30 1.652
306.40 1.651
306.50 1.65
306.60 1.649
306.70 1.649
306.80 1.648
306.90 1.647
307.00 1.646
307.10 1.646
307.20 1.645
307.30 1.644
307.40 1.643
307.50 1.642
307.60 1.642
307.70 1.641
307.80 1.64
307.90 1.639
308.00 1.639
308.10 1.638
308.20 1.637
308.30 1.636
308.40 1.636
308.50 1.635
308.60 1.634
308.70 1.633
308.80 1.633
308.90 1.632
309.00 1.631
309.10 1.63
309.20 1.629
309.30 1.629
309.40 1.628
309.50 1.627
309.60 1.626
309.70 1.626
309.80 1.625
309.90 1.624
310.00 1.623
310.10 1.623
310.20 1.622
310.30 1.621
310.40 1.62
310.50 1.62
310.60 1.619
310.70 1.618
310.80 1.617
310.90 1.617
311.00 1.616
311.10 1.615
311.20 1.614
311.30 1.613
311.40 1.613
311.50 1.612
311.60 1.611
311.70 1.61
311.80 1.61
311.90 1.609
312.00 1.608
312.10 1.607
312.20 1.607
312.30 1.606
312.40 1.605
312.50 1.604
312.60 1.604
312.70 1.603
312.80 1.602
312.90 1.601
313.00 1.601
313.10 1.6
313.20 1.599
313.30 1.598
313.40 1.598
313.50 1.597
313.60 1.596
313.70 1.595
313.80 1.595
313.90 1.594
314.00 1.593
314.10 1.592
314.20 1.592
314.30 1.591
314.40 1.59
314.50 1.589
314.60 1.589
314.70 1.588
314.80 1.587
314.90 1.586
315.00 1.585
315.10 1.585
315.20 1.584
315.30 1.583
315.40 1.582
315.50 1.582
315.60 1.581
315.70 1.58
315.80 1.579
315.90 1.579
316.00 1.578
316.10 1.577
316.20 1.576
316.30 1.576
316.40 1.575
316.50 1.574
316.60 1.573
316.70 1.573
316.80 1.572
316.90 1.571
317.00 1.57
317.10 1.57
317.20 1.569
317.30 1.568
317.40 1.568
317.50 1.567
317.60 1.566
317.70 1.565
317.80 1.565
317.90 1.564
318.00 1.563
318.10 1.562
318.20 1.562
318.30 1.561
318.40 1.56
318.50 1.559
318.60 1.559
318.70 1.558
318.80 1.557
318.90 1.556
319.00 1.556
319.10 1.555
319.20 1.554
319.30 1.553
319.40 1.553
319.50 1.552
319.60 1.551
319.70 1.55
319.80 1.55
319.90 1.549
320.00 1.548
320.10 1.547
320.20 1.547
320.30 1.546
320.40 1.545
320.50 1.544
320.60 1.544
320.70 1.543
320.80 1.542
320.90 1.542
321.00 1.541
321.10 1.54
321.20 1.539
321.30 1.539
321.40 1.538
321.50 1.537
321.60 1.536
321.70 1.536
321.80 1.535
321.90 1.534
322.00 1.533
322.10 1.533
322.20 1.532
322.30 1.531
322.40 1.53
322.50 1.53
322.60 1.529
322.70 1.528
322.80 1.528
322.90 1.527
323.00 1.526
323.10 1.525
323.20 1.525
323.30 1.524
323.40 1.523
323.50 1.522
323.60 1.522
323.70 1.521
323.80 1.52
323.90 1.519
324.00 1.519
324.10 1.518
324.20 1.517
324.30 1.517
324.40 1.516
324.50 1.515
324.60 1.514
324.70 1.514
324.80 1.513
324.90 1.512
325.00 1.511
325.10 1.511
325.20 1.51
325.30 1.509
325.40 1.509
325.50 1.508
325.60 1.507
325.70 1.506
325.80 1.506
325.90 1.505
326.00 1.504
326.10 1.503
326.20 1.503
326.30 1.502
326.40 1.501
326.50 1.501
326.60 1.5
326.70 1.499
326.80 1.498
326.90 1.498
327.00 1.497
327.10 1.496
327.20 1.495
327.30 1.495
327.40 1.494
327.50 1.493
327.60 1.493
327.70 1.492
327.80 1.491
327.90 1.49
328.00 1.49
328.10 1.489
328.20 1.488
328.30 1.488
328.40 1.487
328.50 1.486
328.60 1.485
328.70 1.485
328.80 1.484
328.90 1.483
329.00 1.482
329.10 1.482
329.20 1.481
329.30 1.48
329.40 1.48
329.50 1.479
329.60 1.478
329.70 1.477
329.80 1.477
329.90 1.476
330.00 1.475
330.10 1.475
330.20 1.474
330.30 1.473
330.40 1.472
330.50 1.472
330.60 1.471
330.70 1.47
330.80 1.47
330.90 1.469
331.00 1.468
331.10 1.467
331.20 1.467
331.30 1.466
331.40 1.465
331.50 1.465
331.60 1.464
331.70 1.463
331.80 1.462
331.90 1.462
332.00 1.461
332.10 1.46
332.20 1.46
332.30 1.459
332.40 1.458
332.50 1.457
332.60 1.457
332.70 1.456
332.80 1.455
332.90 1.455
333.00 1.454
333.10 1.453
333.20 1.453
333.30 1.452
333.40 1.451
333.50 1.45
333.60 1.45
333.70 1.449
333.80 1.448
333.90 1.448
334.00 1.447
334.10 1.446
334.20 1.445
334.30 1.445
334.40 1.444
334.50 1.443
334.60 1.443
334.70 1.442
334.80 1.441
334.90 1.441
335.00 1.44
335.10 1.439
335.20 1.438
335.30 1.438
335.40 1.437
335.50 1.436
335.60 1.436
335.70 1.435
335.80 1.434
335.90 1.434
336.00 1.433
336.10 1.432
336.20 1.431
336.30 1.431
336.40 1.43
336.50 1.429
336.60 1.429
336.70 1.428
336.80 1.427
336.90 1.427
337.00 1.426
337.10 1.425
337.20 1.424
337.30 1.424
337.40 1.423
337.50 1.422
337.60 1.422
337.70 1.421
337.80 1.42
337.90 1.42
338.00 1.419
338.10 1.418
338.20 1.418
338.30 1.417
338.40 1.416
338.50 1.415
338.60 1.415
338.70 1.414
338.80 1.413
338.90 1.413
339.00 1.412
339.10 1.411
339.20 1.411
339.30 1.41
339.40 1.409
339.50 1.409
339.60 1.408
339.70 1.407
339.80 1.406
339.90 1.406
340.00 1.405
340.10 1.404
340.20 1.404
340.30 1.403
340.40 1.402
340.50 1.402
340.60 1.401
340.70 1.4
340.80 1.4
340.90 1.399
341.00 1.398
341.10 1.398
341.20 1.397
341.30 1.396
341.40 1.395
341.50 1.395
341.60 1.394
341.70 1.393
341.80 1.393
341.90 1.392
342.00 1.391
342.10 1.391
342.20 1.39
342.30 1.389
342.40 1.389
342.50 1.388
342.60 1.387
342.70 1.387
342.80 1.386
342.90 1.385
343.00 1.385
343.10 1.384
343.20 1.383
343.30 1.383
343.40 1.382
343.50 1.381
343.60 1.38
343.70 1.38
343.80 1.379
343.90 1.378
344.00 1.378
344.10 1.377
344.20 1.376
344.30 1.376
344.40 1.375
344.50 1.374
344.60 1.374
344.70 1.373
344.80 1.372
344.90 1.372
345.00 1.371
345.10 1.37
345.20 1.37
345.30 1.369
345.40 1.368
345.50 1.368
345.60 1.367
345.70 1.366
345.80 1.366
345.90 1.365
346.00 1.364
346.10 1.364
346.20 1.363
346.30 1.362
346.40 1.362
346.50 1.361
346.60 1.36
346.70 1.36
346.80 1.359
346.90 1.358
347.00 1.358
347.10 1.357
347.20 1.356
347.30 1.356
347.40 1.355
347.50 1.354
347.60 1.354
347.70 1.353
347.80 1.352
347.90 1.352
348.00 1.351
348.10 1.35
348.20 1.35
348.30 1.349
348.40 1.348
348.50 1.348
348.60 1.347
348.70 1.346
348.80 1.346
348.90 1.345
349.00 1.344
349.10 1.344
349.20 1.343
349.30 1.342
349.40 1.342
349.50 1.341
349.60 1.34
349.70 1.34
349.80 1.339
349.90 1.338
350.00 1.338
350.10 1.337
350.20 1.336
350.30 1.336
350.40 1.335
350.50 1.334
350.60 1.334
350.70 1.333
350.80 1.332
350.90 1.332
351.00 1.331
351.10 1.33
351.20 1.33
351.30 1.329
351.40 1.328
351.50 1.328
351.60 1.327
351.70 1.326
351.80 1.326
351.90 1.325
352.00 1.325
352.10 1.324
352.20 1.323
352.30 1.323
352.40 1.322
352.50 1.321
352.60 1.321
352.70 1.32
352.80 1.319
352.90 1.319
353.00 1.318
353.10 1.317
353.20 1.317
353.30 1.316
353.40 1.315
353.50 1.315
353.60 1.314
353.70 1.313
353.80 1.313
353.90 1.312
354.00 1.312
354.10 1.311
354.20 1.31
354.30 1.31
354.40 1.309
354.50 1.308
354.60 1.308
354.70 1.307
354.80 1.306
354.90 1.306
355.00 1.305
355.10 1.304
355.20 1.304
355.30 1.303
355.40 1.302
355.50 1.302
355.60 1.301
355.70 1.301
355.80 1.3
355.90 1.299
356.00 1.299
356.10 1.298
356.20 1.297
356.30 1.297
356.40 1.296
356.50 1.295
356.60 1.295
356.70 1.294
356.80 1.294
356.90 1.293
357.00 1.292
357.10 1.292
357.20 1.291
357.30 1.29
357.40 1.29
357.50 1.289
357.60 1.288
357.70 1.288
357.80 1.287
357.90 1.286
358.00 1.286
358.10 1.285
358.20 1.285
358.30 1.284
358.40 1.283
358.50 1.283
358.60 1.282
358.70 1.281
358.80 1.281
358.90 1.28
359.00 1.279
359.10 1.279
359.20 1.278
359.30 1.278
359.40 1.277
359.50 1.276
359.60 1.276
359.70 1.275
359.80 1.274
359.90 1.274
360.00 1.273
360.10 1.273
360.20 1.272
360.30 1.271
360.40 1.271
360.50 1.27
360.60 1.269
360.70 1.269
360.80 1.268
360.90 1.268
361.00 1.267
361.10 1.266
361.20 1.266
361.30 1.265
361.40 1.264
361.50 1.264
361.60 1.263
361.70 1.263
361.80 1.262
361.90 1.261
362.00 1.261
362.10 1.26
362.20 1.259
362.30 1.259
362.40 1.258
362.50 1.258
362.60 1.257
362.70 1.256
362.80 1.256
362.90 1.255
363.00 1.254
363.10 1.254
363.20 1.253
363.30 1.252
363.40 1.252
363.50 1.251
363.60 1.25
363.70 1.25
363.80 1.249
363.90 1.248
364.00 1.247
364.10 1.247
364.20 1.246
364.30 1.245
364.40 1.245
364.50 1.244
364.60 1.243
364.70 1.243
364.80 1.242
364.90 1.241
365.00 1.24
365.10 1.24
365.20 1.239
365.30 1.238
365.40 1.238
365.50 1.237
365.60 1.236
365.70 1.236
365.80 1.235
365.90 1.234
366.00 1.233
366.10 1.233
366.20 1.232
366.30 1.232
366.40 1.231
366.50 1.23
366.60 1.23
366.70 1.229
366.80 1.228
366.90 1.228
367.00 1.227
367.10 1.227
367.20 1.226
367.30 1.225
367.40 1.225
367.50 1.224
367.60 1.223
367.70 1.223
367.80 1.222
367.90 1.222
368.00 1.221
368.10 1.221
368.20 1.22
368.30 1.22
368.40 1.219
368.50 1.219
368.60 1.219
368.70 1.218
368.80 1.218
368.90 1.218
369.00 1.217
369.10 1.217
369.20 1.217
369.30 1.216
369.40 1.216
369.50 1.215
369.60 1.215
369.70 1.215
369.80 1.214
369.90 1.214
370.00 1.214
370.10 1.214
370.20 1.215
370.30 1.215
370.40 1.215
370.50 1.216
370.60 1.216
370.70 1.217
370.80 1.217
370.90 1.217
371.00 1.218
371.10 1.218
371.20 1.219
371.30 1.219
371.40 1.219
371.50 1.22
371.60 1.22
371.70 1.221
371.80 1.221
371.90 1.221
372.00 1.222
372.10 1.223
372.20 1.224
372.30 1.226
372.40 1.227
372.50 1.228
372.60 1.23
372.70 1.231
372.80 1.232
372.90 1.233
373.00 1.235
373.10 1.236
373.20 1.237
373.30 1.239
373.40 1.24
373.50 1.241
373.60 1.242
373.70 1.244
373.80 1.245
373.90 1.246
374.00 1.248
374.10 1.249
374.20 1.251
374.30 1.252
374.40 1.254
374.50 1.255
374.60 1.257
374.70 1.258
374.80 1.26
374.90 1.261
375.00 1.263
375.10 1.264
375.20 1.266
375.30 1.267
375.40 1.269
375.50 1.27
375.60 1.272
375.70 1.273
375.80 1.275
375.90 1.276
376.00 1.277
376.10 1.278
376.20 1.279
376.30 1.28
376.40 1.28
376.50 1.281
376.60 1.282
376.70 1.283
376.80 1.283
376.90 1.284
377.00 1.285
377.10 1.284
377.20 1.283
377.30 1.281
377.40 1.28
377.50 1.279
377.60 1.278
377.70 1.277
377.80 1.276
377.90 1.275
378.00 1.273
378.10 1.266
378.20 1.258
378.30 1.25
378.40 1.243
378.50 1.235
378.60 1.227
378.70 1.22
378.80 1.212
378.90 1.204
379.00 1.197
379.10 1.19
379.20 1.183
379.30 1.176
379.40 1.169
379.50 1.162
379.60 1.156
379.70 1.149
379.80 1.142
379.90 1.135
380.00 1.128
380.10 1.139
380.20 1.15
380.30 1.161
380.40 1.171
380.50 1.182
380.60 1.193
380.70 1.203
380.80 1.214
380.90 1.225
381.00 1.235
381.10 1.239
381.20 1.242
381.30 1.246
381.40 1.249
381.50 1.252
381.60 1.252
381.70 1.251
381.80 1.248
381.90 1.244
382.00 1.239
382.10 1.232
382.20 1.223
382.30 1.204
382.40 1.185
382.50 1.166
382.60 1.147
382.70 1.128
382.80 1.109
382.90 1.09
383.00 1.071
383.10 1.052
383.20 1.033
383.30 1.014
383.40 0.993
383.50 0.9714
383.60 0.9758
383.70 0.9984
383.80 1.02
383.90 1.04
384.00 1.062
384.10 1.087
384.20 1.113
384.30 1.138
384.40 1.161
384.50 1.182
384.60 1.201
384.70 1.217
384.80 1.23
384.90 1.242
385.00 1.252
385.10 1.261
385.20 1.268
385.30 1.274
385.40 1.279
385.50 1.283
385.60 1.286
385.70 1.288
385.80 1.289
385.90 1.29
386.00 1.29
386.10 1.289
386.20 1.288
386.30 1.285
386.40 1.282
386.50 1.278
386.60 1.274
386.70 1.268
386.80 1.262
386.90 1.255
387.00 1.247
387.10 1.238
387.20 1.228
387.30 1.216
387.40 1.204
387.50 1.189
387.60 1.173
387.70 1.156
387.80 1.135
387.90 1.111
388.00 1.085
388.10 1.053
388.20 1.018
388.30 0.9812
388.40 0.9407
388.50 0.9023
388.60 0.8658
388.70 0.834
388.80 0.8052
388.90 0.7795
389.00 0.8032
389.10 0.8309
389.20 0.8626
389.30 0.8989
389.40 0.9374
389.50 0.9782
389.60 1.016
389.70 1.052
389.80 1.085
389.90 1.113
390.00 1.138
390.10 1.16
390.20 1.179
390.30 1.197
390.40 1.214
390.50 1.228
390.60 1.241
390.70 1.254
390.80 1.265
390.90 1.275
391.00 1.285
391.10 1.294
391.20 1.302
391.30 1.31
391.40 1.317
391.50 1.323
391.60 1.329
391.70 1.334
391.80 1.339
391.90 1.343
392.00 1.347
392.10 1.35
392.20 1.353
392.30 1.355
392.40 1.356
392.50 1.358
392.60 1.358
392.70 1.358
392.80 1.358
392.90 1.357
393.00 1.355
393.10 1.353
393.20 1.351
393.30 1.348
393.40 1.344
393.50 1.34
393.60 1.335
393.70 1.33
393.80 1.324
393.90 1.318
394.00 1.311
394.10 1.303
394.20 1.295
394.30 1.286
394.40 1.276
394.50 1.266
394.60 1.255
394.70 1.243
394.80 1.231
394.90 1.218
395.00 1.204
395.10 1.189
395.20 1.173
395.30 1.157
395.40 1.139
395.50 1.12
395.60 1.1
395.70 1.078
395.80 1.055
395.90 1.03
396.00 1.002
396.10 0.9722
396.20 0.9373
396.30 0.8992
396.40 0.8578
396.50 0.8107
396.60 0.7639
396.70 0.7174
396.80 0.6781
396.90 0.6367
397.00 0.5934
397.10 0.6332
397.20 0.6723
397.30 0.7106
397.40 0.7563
397.50 0.8026
397.60 0.8495
397.70 0.8911
397.80 0.9294
397.90 0.9645
398.00 0.9941
398.10 1.022
398.20 1.048
398.30 1.07
398.40 1.092
398.50 1.113
398.60 1.131
398.70 1.149
398.80 1.166
398.90 1.182
399.00 1.197
399.10 1.212
399.20 1.225
399.30 1.239
399.40 1.251
399.50 1.263
399.60 1.274
399.70 1.285
399.80 1.295
399.90 1.305
400.00 1.315
400.10 1.323
400.20 1.332
400.30 1.34
400.40 1.347
400.50 1.355
400.60 1.361
400.70 1.368
400.80 1.374
400.90 1.38
401.00 1.385
401.10 1.39
401.20 1.395
401.30 1.399
401.40 1.403
401.50 1.407
401.60 1.411
401.70 1.414
401.80 1.417
401.90 1.42
402.00 1.423
402.10 1.425
402.20 1.427
402.30 1.429
402.40 1.431
402.50 1.432
402.60 1.433
402.70 1.434
402.80 1.435
402.90 1.436
403.00 1.436
403.10 1.436
403.20 1.436
403.30 1.436
403.40 1.436
403.50 1.435
403.60 1.434
403.70 1.433
403.80 1.432
403.90 1.431
404.00 1.429
404.10 1.427
404.20 1.425
404.30 1.423
404.40 1.421
404.50 1.418
404.60 1.415
404.70 1.412
404.80 1.409
404.90 1.405
405.00 1.401
405.10 1.397
405.20 1.393
405.30 1.388
405.40 1.383
405.50 1.378
405.60 1.373
405.70 1.367
405.80 1.361
405.90 1.355
406.00 1.348
406.10 1.341
406.20 1.334
406.30 1.327
406.40 1.319
406.50 1.311
406.60 1.302
406.70 1.293
406.80 1.283
406.90 1.274
407.00 1.263
407.10 1.252
407.20 1.241
407.30 1.229
407.40 1.217
407.50 1.204
407.60 1.191
407.70 1.177
407.80 1.162
407.90 1.147
408.00 1.131
408.10 1.114
408.20 1.097
408.30 1.079
408.40 1.06
408.50 1.04
408.60 1.02
408.70 0.9984
408.80 0.9758
408.90 0.9524
409.00 0.9282
409.10 0.9018
409.20 0.8742
409.30 0.8451
409.40 0.8122
409.50 0.7769
409.60 0.7394
409.70 0.6981
409.80 0.657
409.90 0.6161
410.00 0.5768
410.10 0.5397
410.20 0.5048
410.30 0.5545
410.40 0.5984
410.50 0.6365
410.60 0.678
410.70 0.7185
410.80 0.7582
410.90 0.7934
411.00 0.8264
411.10 0.8571
411.20 0.8843
411.30 0.9102
411.40 0.9349
411.50 0.9577
411.60 0.9797
411.70 1.001
411.80 1.021
411.90 1.04
412.00 1.058
412.10 1.076
412.20 1.092
412.30 1.109
412.40 1.124
412.50 1.138
412.60 1.153
412.70 1.166
412.80 1.179
412.90 1.191
413.00 1.203
413.10 1.214
413.20 1.225
413.30 1.235
413.40 1.244
413.50 1.254
413.60 1.263
413.70 1.271
413.80 1.279
413.90 1.287
414.00 1.295
414.10 1.302
414.20 1.309
414.30 1.315
414.40 1.322
414.50 1.328
414.60 1.334
414.70 1.339
414.80 1.344
414.90 1.35
415.00 1.355
415.10 1.359
415.20 1.364
415.30 1.368
415.40 1.372
415.50 1.376
415.60 1.38
415.70 1.383
415.80 1.387
415.90 1.39
416.00 1.393
416.10 1.396
416.20 1.399
416.30 1.402
416.40 1.405
416.50 1.407
416.60 1.41
416.70 1.412
416.80 1.414
416.90 1.417
417.00 1.419
417.10 1.421
417.20 1.422
417.30 1.424
417.40 1.426
417.50 1.427
417.60 1.429
417.70 1.43
417.80 1.432
417.90 1.433
418.00 1.434
418.10 1.435
418.20 1.436
418.30 1.437
418.40 1.438
418.50 1.439
418.60 1.44
418.70 1.441
418.80 1.441
418.90 1.442
419.00 1.442
419.10 1.443
419.20 1.443
419.30 1.444
419.40 1.444
419.50 1.444
419.60 1.445
419.70 1.445
419.80 1.445
419.90 1.445
420.00 1.445
420.10 1.445
420.20 1.445
420.30 1.445
420.40 1.445
420.50 1.445
420.60 1.445
420.70 1.444
420.80 1.444
420.90 1.444
421.00 1.444
421.10 1.443
421.20 1.443
421.30 1.442
421.40 1.442
421.50 1.441
421.60 1.441
421.70 1.44
421.80 1.44
421.90 1.439
422.00 1.438
422.10 1.437
422.20 1.437
422.30 1.436
422.40 1.435
422.50 1.434
422.60 1.433
422.70 1.432
422.80 1.431
422.90 1.43
423.00 1.429
423.10 1.428
423.20 1.427
423.30 1.426
423.40 1.424
423.50 1.423
423.60 1.422
423.70 1.421
423.80 1.419
423.90 1.418
424.00 1.416
424.10 1.415
424.20 1.413
424.30 1.412
424.40 1.41
424.50 1.409
424.60 1.407
424.70 1.405
424.80 1.403
424.90 1.402
425.00 1.4
425.10 1.398
425.20 1.396
425.30 1.394
425.40 1.392
425.50 1.39
425.60 1.387
425.70 1.385
425.80 1.383
425.90 1.38
426.00 1.378
426.10 1.376
426.20 1.373
426.30 1.37
426.40 1.367
426.50 1.364
426.60 1.361
426.70 1.359
426.80 1.356
426.90 1.353
427.00 1.349
427.10 1.346
427.20 1.343
427.30 1.34
427.40 1.336
427.50 1.333
427.60 1.329
427.70 1.325
427.80 1.321
427.90 1.317
428.00 1.313
428.10 1.309
428.20 1.305
428.30 1.3
428.40 1.296
428.50 1.291
428.60 1.286
428.70 1.281
428.80 1.276
428.90 1.271
429.00 1.265
429.10 1.259
429.20 1.254
429.30 1.248
429.40 1.242
429.50 1.235
429.60 1.229
429.70 1.222
429.80 1.215
429.90 1.208
430.00 1.2
430.10 1.192
430.20 1.185
430.30 1.176
430.40 1.168
430.50 1.159
430.60 1.15
430.70 1.141
430.80 1.131
430.90 1.122
431.00 1.111
431.10 1.101
431.20 1.09
431.30 1.079
431.40 1.067
431.50 1.055
431.60 1.042
431.70 1.029
431.80 1.016
431.90 1.001
432.00 0.9861
432.10 0.9704
432.20 0.9534
432.30 0.9355
432.40 0.9168
432.50 0.8961
432.60 0.8744
432.70 0.8516
432.80 0.8271
432.90 0.8023
433.00 0.7773
433.10 0.7527
433.20 0.7279
433.30 0.703
433.40 0.6759
433.50 0.6472
433.60 0.617
433.70 0.584
433.80 0.55
433.90 0.515
434.00 0.45
434.10 0.451
434.20 0.518
434.30 0.5523
434.40 0.5857
434.50 0.6182
434.60 0.6477
434.70 0.6757
434.80 0.7021
434.90 0.7264
435.00 0.7505
435.10 0.7744
435.20 0.7987
435.30 0.8226
435.40 0.8461
435.50 0.8679
435.60 0.8886
435.70 0.9082
435.80 0.9258
435.90 0.9425
436.00 0.9585
436.10 0.973
436.20 0.987
436.30 1
436.40 1.013
436.50 1.025
436.60 1.036
436.70 1.047
436.80 1.057
436.90 1.067
437.00 1.077
437.10 1.086
437.20 1.095
437.30 1.104
437.40 1.112
437.50 1.12
437.60 1.128
437.70 1.135
437.80 1.142
437.90 1.149
438.00 1.156
438.10 1.162
438.20 1.168
438.30 1.174
438.40 1.18
438.50 1.185
438.60 1.19
438.70 1.195
438.80 1.2
438.90 1.205
439.00 1.209
439.10 1.213
439.20 1.218
439.30 1.222
439.40 1.225
439.50 1.229
439.60 1.233
439.70 1.236
439.80 1.239
439.90 1.242
440.00 1.245
440.10 1.248
440.20 1.251
440.30 1.254
440.40 1.256
440.50 1.259
440.60 1.261
440.70 1.263
440.80 1.266
440.90 1.268
441.00 1.27
441.10 1.272
441.20 1.273
441.30 1.275
441.40 1.277
441.50 1.279
441.60 1.28
441.70 1.282
441.80 1.283
441.90 1.284
442.00 1.286
442.10 1.287
442.20 1.288
442.30 1.289
442.40 1.29
442.50 1.292
442.60 1.293
442.70 1.293
442.80 1.294
442.90 1.295
443.00 1.296
443.10 1.297
443.20 1.298
443.30 1.298
443.40 1.299
443.50 1.3
443.60 1.3
443.70 1.301
443.80 1.302
443.90 1.302
444.00 1.303
444.10 1.303
444.20 1.303
444.30 1.304
444.40 1.304
444.50 1.305
444.60 1.305
444.70 1.305
444.80 1.305
444.90 1.306
445.00 1.306
445.10 1.306
445.20 1.306
445.30 1.307
445.40 1.307
445.50 1.307
445.60 1.307
445.70 1.307
445.80 1.307
445.90 1.307
446.00 1.307
446.10 1.307
446.20 1.307
446.30 1.307
446.40 1.307
446.50 1.307
446.60 1.307
446.70 1.307
446.80 1.307
446.90 1.307
447.00 1.307
447.10 1.307
447.20 1.306
447.30 1.306
447.40 1.306
447.50 1.306
447.60 1.306
447.70 1.306
447.80 1.305
447.90 1.305
448.00 1.305
448.10 1.305
448.20 1.304
448.30 1.304
448.40 1.304
448.50 1.304
448.60 1.303
448.70 1.303
448.80 1.303
448.90 1.302
449.00 1.302
449.10 1.302
449.20 1.302
449.30 1.301
449.40 1.301
449.50 1.301
449.60 1.3
449.70 1.3
449.80 1.299
449.90 1.299
450.00 1.299
450.10 1.298
450.20 1.298
450.30 1.298
450.40 1.297
450.50 1.297
450.60 1.296
450.70 1.296
450.80 1.295
450.90 1.295
451.00 1.295
451.10 1.294
451.20 1.294
451.30 1.293
451.40 1.293
451.50 1.292
451.60 1.292
451.70 1.291
451.80 1.291
451.90 1.29
452.00 1.29
452.10 1.289
452.20 1.289
452.30 1.288
452.40 1.288
452.50 1.287
452.60 1.287
452.70 1.286
452.80 1.286
452.90 1.285
453.00 1.285
453.10 1.284
453.20 1.284
453.30 1.283
