# Version 2.1 - nm, norm@500 to 1, cut digits, bergeron_2500_65.dat_2500
# Wavelength(nm)  Flambda(ergs/cm^s/s/nm)
300.00 0.03051
300.10 0.03062
300.20 0.03073
300.30 0.03085
300.40 0.03096
300.50 0.03108
300.60 0.0312
300.70 0.03131
300.80 0.03143
300.90 0.03154
301.00 0.03165
301.10 0.03177
301.20 0.03188
301.30 0.032
301.40 0.03211
301.50 0.03222
301.60 0.03234
301.70 0.03245
301.80 0.03257
301.90 0.03268
302.00 0.0328
302.10 0.03291
302.20 0.03304
302.30 0.03316
302.40 0.03328
302.50 0.0334
302.60 0.03352
302.70 0.03364
302.80 0.03377
302.90 0.03389
303.00 0.03401
303.10 0.03413
303.20 0.03425
303.30 0.03437
303.40 0.03449
303.50 0.03461
303.60 0.03473
303.70 0.03485
303.80 0.03497
303.90 0.03509
304.00 0.03521
304.10 0.03534
304.20 0.03546
304.30 0.03559
304.40 0.03572
304.50 0.03585
304.60 0.03598
304.70 0.0361
304.80 0.03623
304.90 0.03636
305.00 0.03649
305.10 0.03661
305.20 0.03674
305.30 0.03687
305.40 0.03699
305.50 0.03712
305.60 0.03725
305.70 0.03737
305.80 0.0375
305.90 0.03762
306.00 0.03775
306.10 0.03789
306.20 0.03802
306.30 0.03815
306.40 0.03829
306.50 0.03842
306.60 0.03856
306.70 0.03869
306.80 0.03883
306.90 0.03896
307.00 0.0391
307.10 0.03923
307.20 0.03936
307.30 0.0395
307.40 0.03963
307.50 0.03976
307.60 0.0399
307.70 0.04003
307.80 0.04016
307.90 0.04029
308.00 0.04043
308.10 0.04057
308.20 0.04071
308.30 0.04085
308.40 0.04099
308.50 0.04113
308.60 0.04128
308.70 0.04142
308.80 0.04156
308.90 0.0417
309.00 0.04184
309.10 0.04198
309.20 0.04212
309.30 0.04226
309.40 0.0424
309.50 0.04254
309.60 0.04268
309.70 0.04282
309.80 0.04296
309.90 0.0431
310.00 0.04324
310.10 0.04339
310.20 0.04353
310.30 0.04368
310.40 0.04383
310.50 0.04398
310.60 0.04413
310.70 0.04428
310.80 0.04443
310.90 0.04457
311.00 0.04472
311.10 0.04487
311.20 0.04502
311.30 0.04517
311.40 0.04531
311.50 0.04546
311.60 0.04561
311.70 0.04575
311.80 0.0459
311.90 0.04605
312.00 0.04619
312.10 0.04634
312.20 0.04649
312.30 0.04664
312.40 0.0468
312.50 0.04695
312.60 0.04711
312.70 0.04726
312.80 0.04742
312.90 0.04757
313.00 0.04773
313.10 0.04788
313.20 0.04804
313.30 0.04819
313.40 0.04835
313.50 0.0485
313.60 0.04866
313.70 0.04881
313.80 0.04896
313.90 0.04912
314.00 0.04928
314.10 0.04944
314.20 0.0496
314.30 0.04976
314.40 0.04992
314.50 0.05009
314.60 0.05025
314.70 0.05041
314.80 0.05057
314.90 0.05074
315.00 0.0509
315.10 0.05106
315.20 0.05122
315.30 0.05138
315.40 0.05154
315.50 0.0517
315.60 0.05186
315.70 0.05202
315.80 0.05219
315.90 0.05235
316.00 0.05251
316.10 0.05268
316.20 0.05285
316.30 0.05302
316.40 0.05319
316.50 0.05336
316.60 0.05353
316.70 0.0537
316.80 0.05387
316.90 0.05404
317.00 0.05421
317.10 0.05438
317.20 0.05454
317.30 0.05471
317.40 0.05488
317.50 0.05505
317.60 0.05522
317.70 0.05539
317.80 0.05555
317.90 0.05572
318.00 0.0559
318.10 0.05607
318.20 0.05624
318.30 0.05642
318.40 0.0566
318.50 0.05678
318.60 0.05696
318.70 0.05713
318.80 0.05731
318.90 0.05749
319.00 0.05766
319.10 0.05784
319.20 0.05802
319.30 0.05819
319.40 0.05837
319.50 0.05854
319.60 0.05872
319.70 0.05889
319.80 0.05907
319.90 0.05925
320.00 0.05943
320.10 0.05961
320.20 0.05979
320.30 0.05998
320.40 0.06016
320.50 0.06035
320.60 0.06053
320.70 0.06072
320.80 0.0609
320.90 0.06109
321.00 0.06127
321.10 0.06146
321.20 0.06164
321.30 0.06183
321.40 0.06201
321.50 0.06219
321.60 0.06238
321.70 0.06256
321.80 0.06274
321.90 0.06292
322.00 0.06311
322.10 0.0633
322.20 0.06349
322.30 0.06369
322.40 0.06388
322.50 0.06408
322.60 0.06427
322.70 0.06446
322.80 0.06465
322.90 0.06485
323.00 0.06504
323.10 0.06523
323.20 0.06542
323.30 0.06561
323.40 0.06581
323.50 0.066
323.60 0.06619
323.70 0.06638
323.80 0.06657
323.90 0.06676
324.00 0.06695
324.10 0.06715
324.20 0.06735
324.30 0.06755
324.40 0.06776
324.50 0.06796
324.60 0.06816
324.70 0.06836
324.80 0.06856
324.90 0.06876
325.00 0.06896
325.10 0.06916
325.20 0.06936
325.30 0.06956
325.40 0.06976
325.50 0.06996
325.60 0.07016
325.70 0.07035
325.80 0.07055
325.90 0.07075
326.00 0.07096
326.10 0.07116
326.20 0.07137
326.30 0.07158
326.40 0.07179
326.50 0.072
326.60 0.07221
326.70 0.07242
326.80 0.07263
326.90 0.07284
327.00 0.07304
327.10 0.07325
327.20 0.07346
327.30 0.07367
327.40 0.07387
327.50 0.07408
327.60 0.07429
327.70 0.07449
327.80 0.0747
327.90 0.07491
328.00 0.07512
328.10 0.07533
328.20 0.07555
328.30 0.07577
328.40 0.07599
328.50 0.0762
328.60 0.07642
328.70 0.07664
328.80 0.07686
328.90 0.07707
329.00 0.07729
329.10 0.07751
329.20 0.07772
329.30 0.07794
329.40 0.07815
329.50 0.07837
329.60 0.07858
329.70 0.0788
329.80 0.07901
329.90 0.07922
330.00 0.07944
330.10 0.07967
330.20 0.07989
330.30 0.08012
330.40 0.08035
330.50 0.08057
330.60 0.0808
330.70 0.08102
330.80 0.08125
330.90 0.08147
331.00 0.0817
331.10 0.08192
331.20 0.08215
331.30 0.08237
331.40 0.0826
331.50 0.08282
331.60 0.08304
331.70 0.08327
331.80 0.08349
331.90 0.08371
332.00 0.08393
332.10 0.08417
332.20 0.0844
332.30 0.08464
332.40 0.08487
332.50 0.08511
332.60 0.08534
332.70 0.08558
332.80 0.08581
332.90 0.08604
333.00 0.08628
333.10 0.08651
333.20 0.08674
333.30 0.08697
333.40 0.08721
333.50 0.08744
333.60 0.08767
333.70 0.0879
333.80 0.08813
333.90 0.08836
334.00 0.08859
334.10 0.08884
334.20 0.08908
334.30 0.08933
334.40 0.08957
334.50 0.08981
334.60 0.09005
334.70 0.0903
334.80 0.09054
334.90 0.09078
335.00 0.09102
335.10 0.09127
335.20 0.09151
335.30 0.09175
335.40 0.09199
335.50 0.09223
335.60 0.09247
335.70 0.09271
335.80 0.09295
335.90 0.09319
336.00 0.09342
336.10 0.09368
336.20 0.09393
336.30 0.09418
336.40 0.09443
336.50 0.09469
336.60 0.09494
336.70 0.09519
336.80 0.09544
336.90 0.09569
337.00 0.09594
337.10 0.09619
337.20 0.09644
337.30 0.09669
337.40 0.09694
337.50 0.09719
337.60 0.09744
337.70 0.09768
337.80 0.09793
337.90 0.09818
338.00 0.09843
338.10 0.09869
338.20 0.09895
338.30 0.09921
338.40 0.09947
338.50 0.09973
338.60 0.09999
338.70 0.1003
338.80 0.1005
338.90 0.1008
339.00 0.101
339.10 0.1013
339.20 0.1015
339.30 0.1018
339.40 0.1021
339.50 0.1023
339.60 0.1026
339.70 0.1028
339.80 0.1031
339.90 0.1033
340.00 0.1036
340.10 0.1039
340.20 0.1041
340.30 0.1044
340.40 0.1047
340.50 0.105
340.60 0.1052
340.70 0.1055
340.80 0.1058
340.90 0.106
341.00 0.1063
341.10 0.1066
341.20 0.1068
341.30 0.1071
341.40 0.1074
341.50 0.1076
341.60 0.1079
341.70 0.1082
341.80 0.1084
341.90 0.1087
342.00 0.109
342.10 0.1092
342.20 0.1095
342.30 0.1098
342.40 0.1101
342.50 0.1104
342.60 0.1106
342.70 0.1109
342.80 0.1112
342.90 0.1115
343.00 0.1117
343.10 0.112
343.20 0.1123
343.30 0.1126
343.40 0.1128
343.50 0.1131
343.60 0.1134
343.70 0.1137
343.80 0.1139
343.90 0.1142
344.00 0.1145
344.10 0.1148
344.20 0.1151
344.30 0.1154
344.40 0.1156
344.50 0.1159
344.60 0.1162
344.70 0.1165
344.80 0.1168
344.90 0.1171
345.00 0.1174
345.10 0.1176
345.20 0.1179
345.30 0.1182
345.40 0.1185
345.50 0.1188
345.60 0.1191
345.70 0.1193
345.80 0.1196
345.90 0.1199
346.00 0.1202
346.10 0.1205
346.20 0.1208
346.30 0.1211
346.40 0.1214
346.50 0.1217
346.60 0.122
346.70 0.1223
346.80 0.1226
346.90 0.1229
347.00 0.1232
347.10 0.1234
347.20 0.1237
347.30 0.124
347.40 0.1243
347.50 0.1246
347.60 0.1249
347.70 0.1252
347.80 0.1255
347.90 0.1258
348.00 0.1261
348.10 0.1264
348.20 0.1267
348.30 0.127
348.40 0.1273
348.50 0.1276
348.60 0.1279
348.70 0.1282
348.80 0.1285
348.90 0.1288
349.00 0.1291
349.10 0.1294
349.20 0.1297
349.30 0.13
349.40 0.1303
349.50 0.1306
349.60 0.1309
349.70 0.1312
349.80 0.1315
349.90 0.1318
350.00 0.1321
350.10 0.1325
350.20 0.1328
350.30 0.1331
350.40 0.1334
350.50 0.1337
350.60 0.134
350.70 0.1343
350.80 0.1347
350.90 0.135
351.00 0.1353
351.10 0.1356
351.20 0.1359
351.30 0.1362
351.40 0.1365
351.50 0.1368
351.60 0.1372
351.70 0.1375
351.80 0.1378
351.90 0.1381
352.00 0.1384
352.10 0.1387
352.20 0.139
352.30 0.1394
352.40 0.1397
352.50 0.14
352.60 0.1403
352.70 0.1407
352.80 0.141
352.90 0.1413
353.00 0.1416
353.10 0.1419
353.20 0.1423
353.30 0.1426
353.40 0.1429
353.50 0.1432
353.60 0.1435
353.70 0.1439
353.80 0.1442
353.90 0.1445
354.00 0.1448
354.10 0.1452
354.20 0.1455
354.30 0.1458
354.40 0.1462
354.50 0.1465
354.60 0.1468
354.70 0.1472
354.80 0.1475
354.90 0.1478
355.00 0.1481
355.10 0.1485
355.20 0.1488
355.30 0.1491
355.40 0.1495
355.50 0.1498
355.60 0.1501
355.70 0.1504
355.80 0.1508
355.90 0.1511
356.00 0.1514
356.10 0.1518
356.20 0.1521
356.30 0.1525
356.40 0.1528
356.50 0.1531
356.60 0.1535
356.70 0.1538
356.80 0.1542
356.90 0.1545
357.00 0.1548
357.10 0.1552
357.20 0.1555
357.30 0.1559
357.40 0.1562
357.50 0.1565
357.60 0.1569
357.70 0.1572
357.80 0.1576
357.90 0.1579
358.00 0.1582
358.10 0.1586
358.20 0.1589
358.30 0.1593
358.40 0.1596
358.50 0.16
358.60 0.1603
358.70 0.1607
358.80 0.161
358.90 0.1614
359.00 0.1617
359.10 0.1621
359.20 0.1624
359.30 0.1628
359.40 0.1631
359.50 0.1635
359.60 0.1638
359.70 0.1642
359.80 0.1645
359.90 0.1648
360.00 0.1652
360.10 0.1656
360.20 0.1659
360.30 0.1663
360.40 0.1666
360.50 0.167
360.60 0.1674
360.70 0.1677
360.80 0.1681
360.90 0.1684
361.00 0.1688
361.10 0.1692
361.20 0.1695
361.30 0.1699
361.40 0.1702
361.50 0.1706
361.60 0.1709
361.70 0.1713
361.80 0.1716
361.90 0.172
362.00 0.1724
362.10 0.1727
362.20 0.1731
362.30 0.1735
362.40 0.1738
362.50 0.1742
362.60 0.1745
362.70 0.1749
362.80 0.1753
362.90 0.1756
363.00 0.176
363.10 0.1764
363.20 0.1767
363.30 0.1771
363.40 0.1775
363.50 0.1779
363.60 0.1782
363.70 0.1786
363.80 0.179
363.90 0.1793
364.00 0.1797
364.10 0.1801
364.20 0.1805
364.30 0.1808
364.40 0.1812
364.50 0.1816
364.60 0.1819
364.70 0.1823
364.80 0.1827
364.90 0.1831
365.00 0.1834
365.10 0.1838
365.20 0.1842
365.30 0.1846
365.40 0.185
365.50 0.1853
365.60 0.1857
365.70 0.1861
365.80 0.1865
365.90 0.1868
366.00 0.1872
366.10 0.1876
366.20 0.188
366.30 0.1884
366.40 0.1888
366.50 0.1892
366.60 0.1895
366.70 0.1899
366.80 0.1903
366.90 0.1907
367.00 0.1911
367.10 0.1915
367.20 0.1919
367.30 0.1922
367.40 0.1926
367.50 0.193
367.60 0.1934
367.70 0.1938
367.80 0.1942
367.90 0.1945
368.00 0.1949
368.10 0.1953
368.20 0.1957
368.30 0.1961
368.40 0.1965
368.50 0.1969
368.60 0.1973
368.70 0.1977
368.80 0.1981
368.90 0.1985
369.00 0.1989
369.10 0.1993
369.20 0.1997
369.30 0.2001
369.40 0.2005
369.50 0.2008
369.60 0.2012
369.70 0.2016
369.80 0.202
369.90 0.2024
370.00 0.2028
370.10 0.2032
370.20 0.2036
370.30 0.204
370.40 0.2044
370.50 0.2048
370.60 0.2052
370.70 0.2056
370.80 0.206
370.90 0.2065
371.00 0.2069
371.10 0.2073
371.20 0.2077
371.30 0.2081
371.40 0.2085
371.50 0.2089
371.60 0.2093
371.70 0.2097
371.80 0.2101
371.90 0.2105
372.00 0.2109
372.10 0.2113
372.20 0.2117
372.30 0.2121
372.40 0.2125
372.50 0.2129
372.60 0.2134
372.70 0.2138
372.80 0.2142
372.90 0.2146
373.00 0.215
373.10 0.2154
373.20 0.2158
373.30 0.2162
373.40 0.2167
373.50 0.2171
373.60 0.2175
373.70 0.2179
373.80 0.2183
373.90 0.2187
374.00 0.2191
374.10 0.2195
374.20 0.22
374.30 0.2204
374.40 0.2208
374.50 0.2212
374.60 0.2217
374.70 0.2221
374.80 0.2225
374.90 0.2229
375.00 0.2233
375.10 0.2238
375.20 0.2242
375.30 0.2246
375.40 0.225
375.50 0.2254
375.60 0.2259
375.70 0.2263
375.80 0.2267
375.90 0.2271
376.00 0.2275
376.10 0.228
376.20 0.2284
376.30 0.2288
376.40 0.2293
376.50 0.2297
376.60 0.2301
376.70 0.2305
376.80 0.231
376.90 0.2314
377.00 0.2318
377.10 0.2322
377.20 0.2327
377.30 0.2331
377.40 0.2335
377.50 0.234
377.60 0.2344
377.70 0.2348
377.80 0.2353
377.90 0.2357
378.00 0.2361
378.10 0.2366
378.20 0.237
378.30 0.2374
378.40 0.2379
378.50 0.2383
378.60 0.2388
378.70 0.2392
378.80 0.2396
378.90 0.2401
379.00 0.2405
379.10 0.2409
379.20 0.2414
379.30 0.2418
379.40 0.2423
379.50 0.2427
379.60 0.2432
379.70 0.2436
379.80 0.244
379.90 0.2445
380.00 0.2449
380.10 0.2454
380.20 0.2458
380.30 0.2463
380.40 0.2467
380.50 0.2471
380.60 0.2476
380.70 0.248
380.80 0.2485
380.90 0.2489
381.00 0.2494
381.10 0.2498
381.20 0.2503
381.30 0.2507
381.40 0.2512
381.50 0.2516
381.60 0.2521
381.70 0.2525
381.80 0.253
381.90 0.2534
382.00 0.2539
382.10 0.2543
382.20 0.2548
382.30 0.2552
382.40 0.2557
382.50 0.2561
382.60 0.2566
382.70 0.2571
382.80 0.2575
382.90 0.258
383.00 0.2584
383.10 0.2589
383.20 0.2593
383.30 0.2598
383.40 0.2602
383.50 0.2607
383.60 0.2612
383.70 0.2616
383.80 0.2621
383.90 0.2625
384.00 0.263
384.10 0.2635
384.20 0.2639
384.30 0.2644
384.40 0.2648
384.50 0.2653
384.60 0.2658
384.70 0.2662
384.80 0.2667
384.90 0.2672
385.00 0.2676
385.10 0.2681
385.20 0.2686
385.30 0.269
385.40 0.2695
385.50 0.27
385.60 0.2704
385.70 0.2709
385.80 0.2714
385.90 0.2718
386.00 0.2723
386.10 0.2728
386.20 0.2732
386.30 0.2737
386.40 0.2742
386.50 0.2746
386.60 0.2751
386.70 0.2756
386.80 0.2761
386.90 0.2765
387.00 0.277
387.10 0.2775
387.20 0.278
387.30 0.2784
387.40 0.2789
387.50 0.2794
387.60 0.2799
387.70 0.2803
387.80 0.2808
387.90 0.2813
388.00 0.2818
388.10 0.2822
388.20 0.2827
388.30 0.2832
388.40 0.2837
388.50 0.2842
388.60 0.2846
388.70 0.2851
388.80 0.2856
388.90 0.2861
389.00 0.2866
389.10 0.2871
389.20 0.2875
389.30 0.288
389.40 0.2885
389.50 0.289
389.60 0.2895
389.70 0.29
389.80 0.2904
389.90 0.2909
390.00 0.2914
390.10 0.2919
390.20 0.2924
390.30 0.2929
390.40 0.2934
390.50 0.2938
390.60 0.2943
390.70 0.2948
390.80 0.2953
390.90 0.2958
391.00 0.2963
391.10 0.2968
391.20 0.2973
391.30 0.2978
391.40 0.2983
391.50 0.2987
391.60 0.2992
391.70 0.2997
391.80 0.3002
391.90 0.3007
392.00 0.3012
392.10 0.3017
392.20 0.3022
392.30 0.3027
392.40 0.3032
392.50 0.3037
392.60 0.3042
392.70 0.3047
392.80 0.3052
392.90 0.3057
393.00 0.3062
393.10 0.3067
393.20 0.3072
393.30 0.3077
393.40 0.3082
393.50 0.3087
393.60 0.3092
393.70 0.3097
393.80 0.3102
393.90 0.3107
394.00 0.3112
394.10 0.3117
394.20 0.3122
394.30 0.3127
394.40 0.3132
394.50 0.3137
394.60 0.3142
394.70 0.3147
394.80 0.3152
394.90 0.3157
395.00 0.3162
395.10 0.3167
395.20 0.3173
395.30 0.3178
395.40 0.3183
395.50 0.3188
395.60 0.3193
395.70 0.3198
395.80 0.3203
395.90 0.3208
396.00 0.3213
396.10 0.3218
396.20 0.3223
396.30 0.3229
396.40 0.3234
396.50 0.3239
396.60 0.3244
396.70 0.3249
396.80 0.3254
396.90 0.3259
397.00 0.3265
397.10 0.327
397.20 0.3275
397.30 0.328
397.40 0.3285
397.50 0.329
397.60 0.3295
397.70 0.3301
397.80 0.3306
397.90 0.3311
398.00 0.3316
398.10 0.3321
398.20 0.3327
398.30 0.3332
398.40 0.3337
398.50 0.3342
398.60 0.3347
398.70 0.3353
398.80 0.3358
398.90 0.3363
399.00 0.3368
399.10 0.3374
399.20 0.3379
399.30 0.3384
399.40 0.3389
399.50 0.3394
399.60 0.34
399.70 0.3405
399.80 0.341
399.90 0.3415
400.00 0.3421
400.10 0.3426
400.20 0.3431
400.30 0.3437
400.40 0.3442
400.50 0.3447
400.60 0.3452
400.70 0.3458
400.80 0.3463
400.90 0.3468
401.00 0.3474
401.10 0.3479
401.20 0.3484
401.30 0.3489
401.40 0.3495
401.50 0.35
401.60 0.3505
401.70 0.3511
401.80 0.3516
401.90 0.3521
402.00 0.3527
402.10 0.3532
402.20 0.3538
402.30 0.3543
402.40 0.3548
402.50 0.3554
402.60 0.3559
402.70 0.3564
402.80 0.357
402.90 0.3575
403.00 0.358
403.10 0.3586
403.20 0.3591
403.30 0.3597
403.40 0.3602
403.50 0.3607
403.60 0.3613
403.70 0.3618
403.80 0.3624
403.90 0.3629
404.00 0.3634
404.10 0.364
404.20 0.3645
404.30 0.3651
404.40 0.3656
404.50 0.3662
404.60 0.3667
404.70 0.3673
404.80 0.3678
404.90 0.3683
405.00 0.3689
405.10 0.3694
405.20 0.37
405.30 0.3705
405.40 0.3711
405.50 0.3716
405.60 0.3722
405.70 0.3727
405.80 0.3733
405.90 0.3738
406.00 0.3744
406.10 0.3749
406.20 0.3755
406.30 0.376
406.40 0.3766
406.50 0.3771
406.60 0.3777
406.70 0.3782
406.80 0.3788
406.90 0.3793
407.00 0.3799
407.10 0.3804
407.20 0.381
407.30 0.3815
407.40 0.3821
407.50 0.3826
407.60 0.3832
407.70 0.3838
407.80 0.3843
407.90 0.3849
408.00 0.3854
408.10 0.386
408.20 0.3865
408.30 0.3871
408.40 0.3877
408.50 0.3882
408.60 0.3888
408.70 0.3893
408.80 0.3899
408.90 0.3904
409.00 0.391
409.10 0.3916
409.20 0.3921
409.30 0.3927
409.40 0.3933
409.50 0.3938
409.60 0.3944
409.70 0.3949
409.80 0.3955
409.90 0.3961
410.00 0.3966
410.10 0.3972
410.20 0.3978
410.30 0.3983
410.40 0.3989
410.50 0.3995
410.60 0.4
410.70 0.4006
410.80 0.4012
410.90 0.4017
411.00 0.4023
411.10 0.4029
411.20 0.4034
411.30 0.404
411.40 0.4046
411.50 0.4051
411.60 0.4057
411.70 0.4063
411.80 0.4068
411.90 0.4074
412.00 0.408
412.10 0.4086
412.20 0.4091
412.30 0.4097
412.40 0.4103
412.50 0.4108
412.60 0.4114
412.70 0.412
412.80 0.4126
412.90 0.4131
413.00 0.4137
413.10 0.4143
413.20 0.4149
413.30 0.4154
413.40 0.416
413.50 0.4166
413.60 0.4172
413.70 0.4177
413.80 0.4183
413.90 0.4189
414.00 0.4195
414.10 0.4201
414.20 0.4206
414.30 0.4212
414.40 0.4218
414.50 0.4224
414.60 0.423
414.70 0.4235
414.80 0.4241
414.90 0.4247
415.00 0.4253
415.10 0.4259
415.20 0.4264
415.30 0.427
415.40 0.4276
415.50 0.4282
415.60 0.4288
415.70 0.4294
415.80 0.4299
415.90 0.4305
416.00 0.4311
416.10 0.4317
416.20 0.4323
416.30 0.4329
416.40 0.4334
416.50 0.434
416.60 0.4346
416.70 0.4352
416.80 0.4358
416.90 0.4364
417.00 0.437
417.10 0.4376
417.20 0.4381
417.30 0.4387
417.40 0.4393
417.50 0.4399
417.60 0.4405
417.70 0.4411
417.80 0.4417
417.90 0.4423
418.00 0.4429
418.10 0.4435
418.20 0.4441
418.30 0.4446
418.40 0.4452
418.50 0.4458
418.60 0.4464
418.70 0.447
418.80 0.4476
418.90 0.4482
419.00 0.4488
419.10 0.4494
419.20 0.45
419.30 0.4506
419.40 0.4512
419.50 0.4518
419.60 0.4524
419.70 0.453
419.80 0.4536
419.90 0.4542
420.00 0.4548
420.10 0.4554
420.20 0.456
420.30 0.4566
420.40 0.4572
420.50 0.4578
420.60 0.4584
420.70 0.459
420.80 0.4596
420.90 0.4602
421.00 0.4608
421.10 0.4614
421.20 0.462
421.30 0.4626
421.40 0.4632
421.50 0.4638
421.60 0.4644
421.70 0.465
421.80 0.4656
421.90 0.4662
422.00 0.4668
422.10 0.4674
422.20 0.468
422.30 0.4686
422.40 0.4692
422.50 0.4698
422.60 0.4704
422.70 0.471
422.80 0.4716
422.90 0.4722
423.00 0.4728
423.10 0.4735
423.20 0.4741
423.30 0.4747
423.40 0.4753
423.50 0.4759
423.60 0.4765
423.70 0.4771
423.80 0.4777
423.90 0.4783
424.00 0.4789
424.10 0.4796
424.20 0.4802
424.30 0.4808
424.40 0.4814
424.50 0.482
424.60 0.4826
424.70 0.4832
424.80 0.4838
424.90 0.4844
425.00 0.4851
425.10 0.4857
425.20 0.4863
425.30 0.4869
425.40 0.4875
425.50 0.4881
425.60 0.4887
425.70 0.4894
425.80 0.49
425.90 0.4906
426.00 0.4912
426.10 0.4918
426.20 0.4924
426.30 0.4931
426.40 0.4937
426.50 0.4943
426.60 0.4949
426.70 0.4955
426.80 0.4961
426.90 0.4968
427.00 0.4974
427.10 0.498
427.20 0.4986
427.30 0.4992
427.40 0.4999
427.50 0.5005
427.60 0.5011
427.70 0.5017
427.80 0.5024
427.90 0.503
428.00 0.5036
428.10 0.5042
428.20 0.5048
428.30 0.5055
428.40 0.5061
428.50 0.5067
428.60 0.5073
428.70 0.508
428.80 0.5086
428.90 0.5092
429.00 0.5098
429.10 0.5105
429.20 0.5111
429.30 0.5117
429.40 0.5123
429.50 0.513
429.60 0.5136
429.70 0.5142
429.80 0.5148
429.90 0.5155
430.00 0.5161
430.10 0.5167
430.20 0.5174
430.30 0.518
430.40 0.5186
430.50 0.5192
430.60 0.5199
430.70 0.5205
430.80 0.5211
430.90 0.5218
431.00 0.5224
431.10 0.523
431.20 0.5237
431.30 0.5243
431.40 0.5249
431.50 0.5256
431.60 0.5262
431.70 0.5268
431.80 0.5275
431.90 0.5281
432.00 0.5287
432.10 0.5293
432.20 0.53
432.30 0.5306
432.40 0.5313
432.50 0.5319
432.60 0.5325
432.70 0.5332
432.80 0.5338
432.90 0.5344
433.00 0.5351
433.10 0.5357
433.20 0.5363
433.30 0.537
433.40 0.5376
433.50 0.5383
433.60 0.5389
433.70 0.5395
433.80 0.5402
433.90 0.5408
434.00 0.5414
434.10 0.5421
434.20 0.5427
434.30 0.5434
434.40 0.544
434.50 0.5446
434.60 0.5453
434.70 0.5459
434.80 0.5466
434.90 0.5472
435.00 0.5478
435.10 0.5485
435.20 0.5491
435.30 0.5498
435.40 0.5504
435.50 0.5511
435.60 0.5517
435.70 0.5523
435.80 0.553
435.90 0.5536
436.00 0.5543
436.10 0.5549
436.20 0.5556
436.30 0.5562
436.40 0.5568
436.50 0.5575
436.60 0.5581
436.70 0.5588
436.80 0.5594
436.90 0.5601
437.00 0.5607
437.10 0.5614
437.20 0.562
437.30 0.5627
437.40 0.5633
437.50 0.564
437.60 0.5646
437.70 0.5653
437.80 0.5659
437.90 0.5666
438.00 0.5672
438.10 0.5679
438.20 0.5685
438.30 0.5692
438.40 0.5698
438.50 0.5705
438.60 0.5711
438.70 0.5718
438.80 0.5724
438.90 0.5731
439.00 0.5737
439.10 0.5744
439.20 0.575
439.30 0.5757
439.40 0.5763
439.50 0.577
439.60 0.5776
439.70 0.5783
439.80 0.5789
439.90 0.5796
440.00 0.5802
440.10 0.5809
440.20 0.5815
