# Version 2.1 - nm, norm@500 to 1, cut digits, bergeron_110000_80.dat_110000
# Wavelength(nm)  Flambda(ergs/cm^s/s/nm)
300.00 6.901
300.10 6.892
300.20 6.883
300.30 6.875
300.40 6.866
300.50 6.857
300.60 6.849
300.70 6.84
300.80 6.832
300.90 6.823
301.00 6.814
301.10 6.806
301.20 6.797
301.30 6.789
301.40 6.78
301.50 6.772
301.60 6.763
301.70 6.755
301.80 6.746
301.90 6.738
302.00 6.729
302.10 6.721
302.20 6.713
302.30 6.704
302.40 6.696
302.50 6.687
302.60 6.679
302.70 6.671
302.80 6.662
302.90 6.654
303.00 6.646
303.10 6.637
303.20 6.629
303.30 6.621
303.40 6.613
303.50 6.604
303.60 6.596
303.70 6.588
303.80 6.58
303.90 6.572
304.00 6.563
304.10 6.555
304.20 6.547
304.30 6.539
304.40 6.531
304.50 6.523
304.60 6.515
304.70 6.507
304.80 6.498
304.90 6.49
305.00 6.482
305.10 6.474
305.20 6.466
305.30 6.458
305.40 6.45
305.50 6.442
305.60 6.434
305.70 6.426
305.80 6.418
305.90 6.41
306.00 6.402
306.10 6.395
306.20 6.387
306.30 6.379
306.40 6.371
306.50 6.363
306.60 6.355
306.70 6.347
306.80 6.339
306.90 6.332
307.00 6.324
307.10 6.316
307.20 6.308
307.30 6.301
307.40 6.293
307.50 6.285
307.60 6.277
307.70 6.27
307.80 6.262
307.90 6.254
308.00 6.246
308.10 6.239
308.20 6.231
308.30 6.223
308.40 6.216
308.50 6.208
308.60 6.201
308.70 6.193
308.80 6.185
308.90 6.178
309.00 6.17
309.10 6.163
309.20 6.155
309.30 6.148
309.40 6.14
309.50 6.133
309.60 6.125
309.70 6.118
309.80 6.11
309.90 6.103
310.00 6.095
310.10 6.088
310.20 6.08
310.30 6.073
310.40 6.065
310.50 6.058
310.60 6.051
310.70 6.043
310.80 6.036
310.90 6.029
311.00 6.021
311.10 6.014
311.20 6.007
311.30 5.999
311.40 5.992
311.50 5.985
311.60 5.977
311.70 5.97
311.80 5.963
311.90 5.956
312.00 5.948
312.10 5.941
312.20 5.934
312.30 5.927
312.40 5.92
312.50 5.912
312.60 5.905
312.70 5.898
312.80 5.891
312.90 5.884
313.00 5.877
313.10 5.87
313.20 5.862
313.30 5.855
313.40 5.848
313.50 5.841
313.60 5.834
313.70 5.827
313.80 5.82
313.90 5.813
314.00 5.806
314.10 5.799
314.20 5.792
314.30 5.785
314.40 5.778
314.50 5.771
314.60 5.764
314.70 5.757
314.80 5.75
314.90 5.743
315.00 5.736
315.10 5.73
315.20 5.723
315.30 5.716
315.40 5.709
315.50 5.702
315.60 5.695
315.70 5.688
315.80 5.682
315.90 5.675
316.00 5.668
316.10 5.661
316.20 5.654
316.30 5.648
316.40 5.641
316.50 5.634
316.60 5.627
316.70 5.621
316.80 5.614
316.90 5.607
317.00 5.6
317.10 5.594
317.20 5.587
317.30 5.58
317.40 5.574
317.50 5.567
317.60 5.56
317.70 5.554
317.80 5.547
317.90 5.541
318.00 5.534
318.10 5.527
318.20 5.521
318.30 5.514
318.40 5.508
318.50 5.501
318.60 5.495
318.70 5.488
318.80 5.481
318.90 5.475
319.00 5.468
319.10 5.462
319.20 5.455
319.30 5.449
319.40 5.443
319.50 5.436
319.60 5.43
319.70 5.423
319.80 5.417
319.90 5.41
320.00 5.404
320.10 5.398
320.20 5.391
320.30 5.385
320.40 5.378
320.50 5.372
320.60 5.366
320.70 5.359
320.80 5.353
320.90 5.347
321.00 5.34
321.10 5.334
321.20 5.328
321.30 5.321
321.40 5.315
321.50 5.309
321.60 5.303
321.70 5.296
321.80 5.29
321.90 5.284
322.00 5.278
322.10 5.271
322.20 5.265
322.30 5.259
322.40 5.253
322.50 5.247
322.60 5.241
322.70 5.234
322.80 5.228
322.90 5.222
323.00 5.216
323.10 5.21
323.20 5.204
323.30 5.198
323.40 5.192
323.50 5.185
323.60 5.179
323.70 5.173
323.80 5.167
323.90 5.161
324.00 5.155
324.10 5.149
324.20 5.143
324.30 5.137
324.40 5.131
324.50 5.125
324.60 5.119
324.70 5.113
324.80 5.107
324.90 5.101
325.00 5.095
325.10 5.089
325.20 5.083
325.30 5.077
325.40 5.071
325.50 5.066
325.60 5.06
325.70 5.054
325.80 5.048
325.90 5.042
326.00 5.036
326.10 5.03
326.20 5.024
326.30 5.019
326.40 5.013
326.50 5.007
326.60 5.001
326.70 4.995
326.80 4.989
326.90 4.984
327.00 4.978
327.10 4.972
327.20 4.966
327.30 4.961
327.40 4.955
327.50 4.949
327.60 4.943
327.70 4.938
327.80 4.932
327.90 4.926
328.00 4.921
328.10 4.915
328.20 4.909
328.30 4.903
328.40 4.898
328.50 4.892
328.60 4.887
328.70 4.881
328.80 4.875
328.90 4.87
329.00 4.864
329.10 4.858
329.20 4.853
329.30 4.847
329.40 4.842
329.50 4.836
329.60 4.83
329.70 4.825
329.80 4.819
329.90 4.814
330.00 4.808
330.10 4.803
330.20 4.797
330.30 4.792
330.40 4.786
330.50 4.781
330.60 4.775
330.70 4.77
330.80 4.764
330.90 4.759
331.00 4.753
331.10 4.748
331.20 4.743
331.30 4.737
331.40 4.732
331.50 4.726
331.60 4.721
331.70 4.715
331.80 4.71
331.90 4.705
332.00 4.699
332.10 4.694
332.20 4.688
332.30 4.683
332.40 4.678
332.50 4.672
332.60 4.667
332.70 4.662
332.80 4.657
332.90 4.651
333.00 4.646
333.10 4.641
333.20 4.635
333.30 4.63
333.40 4.625
333.50 4.619
333.60 4.614
333.70 4.609
333.80 4.604
333.90 4.598
334.00 4.593
334.10 4.588
334.20 4.583
334.30 4.578
334.40 4.572
334.50 4.567
334.60 4.562
334.70 4.557
334.80 4.552
334.90 4.547
335.00 4.541
335.10 4.536
335.20 4.531
335.30 4.526
335.40 4.521
335.50 4.516
335.60 4.511
335.70 4.505
335.80 4.5
335.90 4.495
336.00 4.49
336.10 4.485
336.20 4.48
336.30 4.475
336.40 4.47
336.50 4.465
336.60 4.46
336.70 4.455
336.80 4.45
336.90 4.445
337.00 4.44
337.10 4.435
337.20 4.43
337.30 4.425
337.40 4.42
337.50 4.415
337.60 4.41
337.70 4.405
337.80 4.4
337.90 4.395
338.00 4.39
338.10 4.385
338.20 4.38
338.30 4.375
338.40 4.37
338.50 4.365
338.60 4.361
338.70 4.356
338.80 4.351
338.90 4.346
339.00 4.341
339.10 4.336
339.20 4.331
339.30 4.327
339.40 4.322
339.50 4.317
339.60 4.312
339.70 4.307
339.80 4.302
339.90 4.297
340.00 4.293
340.10 4.288
340.20 4.283
340.30 4.278
340.40 4.274
340.50 4.269
340.60 4.264
340.70 4.259
340.80 4.255
340.90 4.25
341.00 4.245
341.10 4.24
341.20 4.236
341.30 4.231
341.40 4.226
341.50 4.221
341.60 4.217
341.70 4.212
341.80 4.207
341.90 4.203
342.00 4.198
342.10 4.193
342.20 4.189
342.30 4.184
342.40 4.179
342.50 4.175
342.60 4.17
342.70 4.166
342.80 4.161
342.90 4.156
343.00 4.152
343.10 4.147
343.20 4.143
343.30 4.138
343.40 4.133
343.50 4.129
343.60 4.124
343.70 4.12
343.80 4.115
343.90 4.11
344.00 4.106
344.10 4.101
344.20 4.097
344.30 4.092
344.40 4.088
344.50 4.083
344.60 4.079
344.70 4.074
344.80 4.07
344.90 4.065
345.00 4.061
345.10 4.056
345.20 4.052
345.30 4.048
345.40 4.043
345.50 4.039
345.60 4.034
345.70 4.03
345.80 4.025
345.90 4.021
346.00 4.016
346.10 4.012
346.20 4.008
346.30 4.003
346.40 3.999
346.50 3.994
346.60 3.99
346.70 3.986
346.80 3.981
346.90 3.977
347.00 3.973
347.10 3.968
347.20 3.964
347.30 3.96
347.40 3.955
347.50 3.951
347.60 3.947
347.70 3.942
347.80 3.938
347.90 3.934
348.00 3.929
348.10 3.925
348.20 3.921
348.30 3.916
348.40 3.912
348.50 3.908
348.60 3.904
348.70 3.899
348.80 3.895
348.90 3.891
349.00 3.887
349.10 3.882
349.20 3.878
349.30 3.874
349.40 3.87
349.50 3.866
349.60 3.861
349.70 3.857
349.80 3.853
349.90 3.849
350.00 3.845
350.10 3.84
350.20 3.836
350.30 3.832
350.40 3.828
350.50 3.824
350.60 3.82
350.70 3.815
350.80 3.811
350.90 3.807
351.00 3.803
351.10 3.799
351.20 3.795
351.30 3.791
351.40 3.787
351.50 3.783
351.60 3.778
351.70 3.774
351.80 3.77
351.90 3.766
352.00 3.762
352.10 3.758
352.20 3.754
352.30 3.75
352.40 3.746
352.50 3.742
352.60 3.738
352.70 3.734
352.80 3.73
352.90 3.726
353.00 3.722
353.10 3.718
353.20 3.714
353.30 3.71
353.40 3.706
353.50 3.702
353.60 3.698
353.70 3.694
353.80 3.69
353.90 3.686
354.00 3.682
354.10 3.678
354.20 3.674
354.30 3.67
354.40 3.666
354.50 3.662
354.60 3.658
354.70 3.654
354.80 3.65
354.90 3.646
355.00 3.643
355.10 3.639
355.20 3.635
355.30 3.631
355.40 3.627
355.50 3.623
355.60 3.619
355.70 3.615
355.80 3.611
355.90 3.608
356.00 3.604
356.10 3.6
356.20 3.596
356.30 3.592
356.40 3.588
356.50 3.585
356.60 3.581
356.70 3.577
356.80 3.573
356.90 3.569
357.00 3.565
357.10 3.562
357.20 3.558
357.30 3.554
357.40 3.55
357.50 3.546
357.60 3.543
357.70 3.539
357.80 3.535
357.90 3.531
358.00 3.528
358.10 3.524
358.20 3.52
358.30 3.516
358.40 3.513
358.50 3.509
358.60 3.505
358.70 3.502
358.80 3.498
358.90 3.494
359.00 3.49
359.10 3.487
359.20 3.483
359.30 3.479
359.40 3.476
359.50 3.472
359.60 3.468
359.70 3.465
359.80 3.461
359.90 3.457
360.00 3.454
360.10 3.45
360.20 3.446
360.30 3.443
360.40 3.439
360.50 3.435
360.60 3.432
360.70 3.428
360.80 3.425
360.90 3.421
361.00 3.417
361.10 3.414
361.20 3.41
361.30 3.406
361.40 3.403
361.50 3.399
361.60 3.396
361.70 3.392
361.80 3.389
361.90 3.385
362.00 3.381
362.10 3.378
362.20 3.374
362.30 3.371
362.40 3.367
362.50 3.364
362.60 3.36
362.70 3.357
362.80 3.353
362.90 3.35
363.00 3.346
363.10 3.343
363.20 3.339
363.30 3.336
363.40 3.332
363.50 3.329
363.60 3.325
363.70 3.322
363.80 3.318
363.90 3.315
364.00 3.311
364.10 3.308
364.20 3.304
364.30 3.301
364.40 3.297
364.50 3.294
364.60 3.29
364.70 3.287
364.80 3.284
364.90 3.28
365.00 3.277
365.10 3.273
365.20 3.27
365.30 3.267
365.40 3.263
365.50 3.26
365.60 3.256
365.70 3.253
365.80 3.25
365.90 3.246
366.00 3.243
366.10 3.239
366.20 3.236
366.30 3.233
366.40 3.229
366.50 3.226
366.60 3.222
366.70 3.219
366.80 3.216
366.90 3.212
367.00 3.209
367.10 3.206
367.20 3.202
367.30 3.199
367.40 3.196
367.50 3.192
367.60 3.189
367.70 3.185
367.80 3.182
367.90 3.179
368.00 3.175
368.10 3.172
368.20 3.169
368.30 3.165
368.40 3.162
368.50 3.159
368.60 3.156
368.70 3.152
368.80 3.149
368.90 3.146
369.00 3.142
369.10 3.139
369.20 3.136
369.30 3.132
369.40 3.129
369.50 3.126
369.60 3.123
369.70 3.119
369.80 3.116
369.90 3.113
370.00 3.109
370.10 3.106
370.20 3.103
370.30 3.1
370.40 3.097
370.50 3.093
370.60 3.09
370.70 3.087
370.80 3.084
370.90 3.08
371.00 3.077
371.10 3.074
371.20 3.071
371.30 3.068
371.40 3.064
371.50 3.061
371.60 3.058
371.70 3.055
371.80 3.052
371.90 3.049
372.00 3.045
372.10 3.042
372.20 3.039
372.30 3.036
372.40 3.033
372.50 3.03
372.60 3.027
372.70 3.024
372.80 3.02
372.90 3.017
373.00 3.014
373.10 3.011
373.20 3.008
373.30 3.005
373.40 3.002
373.50 2.999
373.60 2.996
373.70 2.993
373.80 2.99
373.90 2.986
374.00 2.983
374.10 2.98
374.20 2.977
374.30 2.974
374.40 2.971
374.50 2.968
374.60 2.965
374.70 2.962
374.80 2.959
374.90 2.956
375.00 2.953
375.10 2.95
375.20 2.947
375.30 2.944
375.40 2.941
375.50 2.938
375.60 2.935
375.70 2.932
375.80 2.929
375.90 2.926
376.00 2.923
376.10 2.92
376.20 2.917
376.30 2.914
376.40 2.911
376.50 2.908
376.60 2.905
376.70 2.902
376.80 2.899
376.90 2.896
377.00 2.893
377.10 2.89
377.20 2.887
377.30 2.884
377.40 2.881
377.50 2.878
377.60 2.875
377.70 2.873
377.80 2.87
377.90 2.867
378.00 2.864
378.10 2.861
378.20 2.858
378.30 2.855
378.40 2.852
378.50 2.849
378.60 2.847
378.70 2.844
378.80 2.841
378.90 2.838
379.00 2.835
379.10 2.832
379.20 2.83
379.30 2.827
379.40 2.824
379.50 2.821
379.60 2.818
379.70 2.816
379.80 2.813
379.90 2.81
380.00 2.807
380.10 2.804
380.20 2.802
380.30 2.799
380.40 2.796
380.50 2.793
380.60 2.791
380.70 2.788
380.80 2.785
380.90 2.782
381.00 2.78
381.10 2.777
381.20 2.774
381.30 2.771
381.40 2.769
381.50 2.766
381.60 2.763
381.70 2.761
381.80 2.758
381.90 2.755
382.00 2.752
382.10 2.75
382.20 2.747
382.30 2.744
382.40 2.742
382.50 2.739
382.60 2.736
382.70 2.733
382.80 2.731
382.90 2.728
383.00 2.725
383.10 2.723
383.20 2.72
383.30 2.717
383.40 2.715
383.50 2.712
383.60 2.71
383.70 2.707
383.80 2.704
383.90 2.702
384.00 2.699
384.10 2.697
384.20 2.694
384.30 2.692
384.40 2.689
384.50 2.687
384.60 2.684
384.70 2.682
384.80 2.679
384.90 2.677
385.00 2.674
385.10 2.672
385.20 2.669
385.30 2.667
385.40 2.664
385.50 2.662
385.60 2.659
385.70 2.656
385.80 2.654
385.90 2.651
386.00 2.649
386.10 2.646
386.20 2.643
386.30 2.641
386.40 2.638
386.50 2.636
386.60 2.633
386.70 2.63
386.80 2.627
386.90 2.625
387.00 2.622
387.10 2.619
387.20 2.617
387.30 2.614
387.40 2.611
387.50 2.608
387.60 2.606
387.70 2.603
387.80 2.6
387.90 2.597
388.00 2.595
388.10 2.592
388.20 2.589
388.30 2.587
388.40 2.584
388.50 2.581
388.60 2.579
388.70 2.577
388.80 2.574
388.90 2.572
389.00 2.57
389.10 2.567
389.20 2.565
389.30 2.563
389.40 2.56
389.50 2.558
389.60 2.556
389.70 2.554
389.80 2.552
389.90 2.55
390.00 2.548
390.10 2.546
390.20 2.544
390.30 2.542
390.40 2.54
390.50 2.538
390.60 2.536
390.70 2.534
390.80 2.532
390.90 2.53
391.00 2.528
391.10 2.526
391.20 2.523
391.30 2.521
391.40 2.519
391.50 2.517
391.60 2.515
391.70 2.512
391.80 2.51
391.90 2.508
392.00 2.505
392.10 2.503
392.20 2.501
392.30 2.498
392.40 2.496
392.50 2.493
392.60 2.491
392.70 2.488
392.80 2.486
392.90 2.483
393.00 2.481
393.10 2.478
393.20 2.475
393.30 2.473
393.40 2.47
393.50 2.467
393.60 2.464
393.70 2.462
393.80 2.459
393.90 2.456
394.00 2.453
394.10 2.45
394.20 2.447
394.30 2.444
394.40 2.441
394.50 2.438
394.60 2.435
394.70 2.432
394.80 2.429
394.90 2.426
395.00 2.422
395.10 2.419
395.20 2.416
395.30 2.412
395.40 2.409
395.50 2.406
395.60 2.402
395.70 2.399
395.80 2.396
395.90 2.392
396.00 2.389
396.10 2.386
396.20 2.382
396.30 2.379
396.40 2.375
396.50 2.372
396.60 2.369
396.70 2.366
396.80 2.363
396.90 2.36
397.00 2.357
397.10 2.355
397.20 2.354
397.30 2.353
397.40 2.352
397.50 2.351
397.60 2.35
397.70 2.349
397.80 2.348
397.90 2.347
398.00 2.346
398.10 2.345
398.20 2.344
398.30 2.343
398.40 2.342
398.50 2.341
398.60 2.341
398.70 2.34
398.80 2.339
398.90 2.337
399.00 2.336
399.10 2.335
399.20 2.334
399.30 2.333
399.40 2.332
399.50 2.331
399.60 2.329
399.70 2.328
399.80 2.327
399.90 2.326
400.00 2.324
400.10 2.323
400.20 2.321
400.30 2.32
400.40 2.319
400.50 2.317
400.60 2.315
400.70 2.314
400.80 2.312
400.90 2.311
401.00 2.309
401.10 2.307
401.20 2.306
401.30 2.304
401.40 2.302
401.50 2.301
401.60 2.299
401.70 2.297
401.80 2.295
401.90 2.293
402.00 2.291
402.10 2.289
402.20 2.288
402.30 2.286
402.40 2.284
402.50 2.282
402.60 2.28
402.70 2.278
402.80 2.275
402.90 2.273
403.00 2.271
403.10 2.269
403.20 2.267
403.30 2.265
403.40 2.263
403.50 2.26
403.60 2.258
403.70 2.256
403.80 2.254
403.90 2.251
404.00 2.249
404.10 2.247
404.20 2.244
404.30 2.242
404.40 2.239
404.50 2.237
404.60 2.235
404.70 2.232
404.80 2.229
404.90 2.227
405.00 2.224
405.10 2.222
405.20 2.219
405.30 2.216
405.40 2.214
405.50 2.211
405.60 2.208
405.70 2.205
405.80 2.202
405.90 2.199
406.00 2.196
406.10 2.193
406.20 2.19
406.30 2.187
406.40 2.184
406.50 2.181
406.60 2.178
406.70 2.174
406.80 2.171
406.90 2.168
407.00 2.164
407.10 2.161
407.20 2.157
407.30 2.154
407.40 2.15
407.50 2.146
407.60 2.142
407.70 2.138
407.80 2.135
407.90 2.131
408.00 2.126
408.10 2.122
408.20 2.118
408.30 2.114
408.40 2.11
408.50 2.105
408.60 2.101
408.70 2.096
408.80 2.092
408.90 2.087
409.00 2.082
409.10 2.078
409.20 2.073
409.30 2.068
409.40 2.064
409.50 2.06
409.60 2.055
409.70 2.051
409.80 2.048
409.90 2.045
410.00 2.044
410.10 2.044
410.20 2.044
410.30 2.039
410.40 2.036
410.50 2.034
410.60 2.034
410.70 2.034
410.80 2.034
410.90 2.035
411.00 2.036
411.10 2.037
411.20 2.038
411.30 2.038
411.40 2.039
411.50 2.04
411.60 2.041
411.70 2.042
411.80 2.042
411.90 2.043
412.00 2.043
412.10 2.044
412.20 2.044
412.30 2.045
412.40 2.045
412.50 2.045
412.60 2.045
412.70 2.045
412.80 2.045
412.90 2.045
413.00 2.045
413.10 2.044
413.20 2.044
413.30 2.044
413.40 2.043
413.50 2.043
413.60 2.042
413.70 2.042
413.80 2.041
413.90 2.04
414.00 2.04
414.10 2.039
414.20 2.038
414.30 2.037
414.40 2.036
414.50 2.035
414.60 2.035
414.70 2.034
414.80 2.032
414.90 2.031
415.00 2.03
415.10 2.029
415.20 2.028
415.30 2.027
415.40 2.026
415.50 2.024
415.60 2.023
415.70 2.022
415.80 2.02
415.90 2.019
416.00 2.018
416.10 2.016
416.20 2.015
416.30 2.014
416.40 2.012
416.50 2.011
416.60 2.009
416.70 2.008
416.80 2.006
416.90 2.005
417.00 2.003
417.10 2.002
417.20 2
417.30 1.999
417.40 1.997
417.50 1.996
417.60 1.994
417.70 1.993
417.80 1.991
417.90 1.989
418.00 1.988
418.10 1.986
418.20 1.985
418.30 1.983
418.40 1.981
418.50 1.98
418.60 1.978
418.70 1.976
418.80 1.975
418.90 1.973
419.00 1.971
419.10 1.97
419.20 1.968
419.30 1.966
419.40 1.965
419.50 1.963
419.60 1.961
419.70 1.96
419.80 1.958
419.90 1.956
420.00 1.954
420.10 1.953
420.20 1.951
420.30 1.949
420.40 1.948
420.50 1.946
420.60 1.944
420.70 1.942
420.80 1.941
420.90 1.939
421.00 1.937
421.10 1.936
421.20 1.934
421.30 1.932
421.40 1.93
421.50 1.929
421.60 1.927
421.70 1.925
421.80 1.923
421.90 1.922
422.00 1.92
422.10 1.918
422.20 1.916
422.30 1.915
422.40 1.913
422.50 1.911
422.60 1.909
422.70 1.908
422.80 1.906
422.90 1.904
423.00 1.902
423.10 1.901
423.20 1.899
423.30 1.897
423.40 1.895
423.50 1.893
423.60 1.892
423.70 1.89
423.80 1.888
423.90 1.886
424.00 1.885
424.10 1.883
424.20 1.881
424.30 1.879
424.40 1.877
424.50 1.876
424.60 1.874
424.70 1.872
424.80 1.87
424.90 1.868
425.00 1.867
425.10 1.865
425.20 1.863
425.30 1.861
425.40 1.859
425.50 1.857
425.60 1.855
425.70 1.854
425.80 1.852
425.90 1.85
426.00 1.848
426.10 1.846
426.20 1.844
426.30 1.842
426.40 1.84
426.50 1.839
426.60 1.837
426.70 1.835
426.80 1.833
426.90 1.831
427.00 1.829
427.10 1.827
427.20 1.825
427.30 1.823
427.40 1.821
427.50 1.819
427.60 1.817
427.70 1.815
427.80 1.813
427.90 1.811
428.00 1.808
428.10 1.806
428.20 1.804
428.30 1.802
428.40 1.8
428.50 1.798
428.60 1.795
428.70 1.793
428.80 1.791
428.90 1.788
429.00 1.786
429.10 1.784
429.20 1.781
429.30 1.779
429.40 1.776
429.50 1.774
429.60 1.771
429.70 1.769
429.80 1.766
429.90 1.763
430.00 1.76
430.10 1.758
430.20 1.755
430.30 1.752
430.40 1.749
430.50 1.746
430.60 1.743
430.70 1.739
430.80 1.736
430.90 1.733
431.00 1.729
431.10 1.726
431.20 1.722
431.30 1.719
431.40 1.715
431.50 1.711
431.60 1.707
431.70 1.703
431.80 1.699
431.90 1.695
432.00 1.69
432.10 1.686
432.20 1.681
432.30 1.677
432.40 1.672
432.50 1.667
432.60 1.662
432.70 1.657
432.80 1.652
432.90 1.647
433.00 1.642
433.10 1.637
433.20 1.632
433.30 1.627
433.40 1.622
433.50 1.617
433.60 1.613
433.70 1.608
433.80 1.603
433.90 1.598
434.00 1.594
434.10 1.593
434.20 1.594
434.30 1.597
434.40 1.599
434.50 1.601
434.60 1.603
434.70 1.605
434.80 1.607
434.90 1.609
435.00 1.611
435.10 1.613
435.20 1.616
435.30 1.618
435.40 1.62
435.50 1.622
435.60 1.624
435.70 1.626
435.80 1.627
435.90 1.629
436.00 1.631
436.10 1.632
436.20 1.633
436.30 1.635
436.40 1.636
436.50 1.637
436.60 1.638
436.70 1.638
436.80 1.639
436.90 1.64
437.00 1.64
437.10 1.641
437.20 1.641
437.30 1.641
437.40 1.642
437.50 1.642
437.60 1.642
437.70 1.642
437.80 1.642
437.90 1.641
438.00 1.641
438.10 1.641
438.20 1.641
438.30 1.64
438.40 1.64
438.50 1.639
438.60 1.639
438.70 1.638
438.80 1.638
438.90 1.637
439.00 1.636
439.10 1.635
439.20 1.635
439.30 1.634
439.40 1.633
439.50 1.632
439.60 1.631
439.70 1.631
439.80 1.63
439.90 1.629
440.00 1.628
440.10 1.627
440.20 1.626
440.30 1.625
440.40 1.624
440.50 1.623
440.60 1.622
440.70 1.621
440.80 1.619
440.90 1.618
441.00 1.617
441.10 1.616
441.20 1.615
441.30 1.614
441.40 1.613
441.50 1.612
441.60 1.61
441.70 1.609
441.80 1.608
441.90 1.607
442.00 1.606
442.10 1.604
442.20 1.603
442.30 1.602
442.40 1.601
442.50 1.6
442.60 1.598
442.70 1.597
442.80 1.596
442.90 1.595
443.00 1.593
443.10 1.592
443.20 1.591
443.30 1.59
443.40 1.588
443.50 1.587
443.60 1.586
443.70 1.584
443.80 1.583
443.90 1.582
444.00 1.581
444.10 1.579
444.20 1.578
444.30 1.577
444.40 1.576
444.50 1.574
444.60 1.573
444.70 1.572
444.80 1.57
444.90 1.569
445.00 1.568
445.10 1.566
445.20 1.565
445.30 1.564
445.40 1.563
445.50 1.561
445.60 1.56
445.70 1.559
445.80 1.557
445.90 1.556
446.00 1.555
446.10 1.554
446.20 1.552
446.30 1.551
446.40 1.55
446.50 1.548
446.60 1.547
446.70 1.546
446.80 1.544
446.90 1.543
447.00 1.542
447.10 1.541
447.20 1.539
447.30 1.538
447.40 1.537
447.50 1.535
447.60 1.534
447.70 1.533
447.80 1.532
447.90 1.53
448.00 1.529
448.10 1.528
448.20 1.526
448.30 1.525
448.40 1.524
448.50 1.523
448.60 1.521
448.70 1.52
448.80 1.519
448.90 1.517
449.00 1.516
449.10 1.515
449.20 1.514
449.30 1.512
449.40 1.511
449.50 1.51
449.60 1.508
449.70 1.507
449.80 1.506
449.90 1.505
450.00 1.503
450.10 1.502
450.20 1.501
450.30 1.499
450.40 1.498
450.50 1.497
450.60 1.496
450.70 1.494
450.80 1.493
450.90 1.492
451.00 1.491
451.10 1.489
451.20 1.488
451.30 1.487
451.40 1.486
451.50 1.484
451.60 1.483
451.70 1.482
451.80 1.481
451.90 1.479
452.00 1.478
452.10 1.477
452.20 1.476
452.30 1.474
452.40 1.473
452.50 1.472
452.60 1.471
452.70 1.469
452.80 1.468
452.90 1.467
453.00 1.466
453.10 1.464
453.20 1.463
453.30 1.462
453.40 1.461
453.50 1.459
453.60 1.458
453.70 1.457
453.80 1.456
453.90 1.454
454.00 1.453
