# Version 2.1 - nm, norm@500 to 1, cut digits, bergeron_20000_75.dat_20000
# Wavelength(nm)  Flambda(ergs/cm^s/s/nm)
300.00 3.229
300.10 3.226
300.20 3.223
300.30 3.22
300.40 3.216
300.50 3.213
300.60 3.21
300.70 3.207
300.80 3.204
300.90 3.201
301.00 3.198
301.10 3.195
301.20 3.192
301.30 3.189
301.40 3.186
301.50 3.183
301.60 3.18
301.70 3.177
301.80 3.174
301.90 3.171
302.00 3.168
302.10 3.165
302.20 3.162
302.30 3.159
302.40 3.156
302.50 3.153
302.60 3.15
302.70 3.147
302.80 3.144
302.90 3.141
303.00 3.138
303.10 3.136
303.20 3.133
303.30 3.13
303.40 3.127
303.50 3.124
303.60 3.121
303.70 3.118
303.80 3.115
303.90 3.112
304.00 3.109
304.10 3.106
304.20 3.103
304.30 3.1
304.40 3.097
304.50 3.095
304.60 3.092
304.70 3.089
304.80 3.086
304.90 3.083
305.00 3.08
305.10 3.077
305.20 3.074
305.30 3.071
305.40 3.069
305.50 3.066
305.60 3.063
305.70 3.06
305.80 3.057
305.90 3.054
306.00 3.051
306.10 3.049
306.20 3.046
306.30 3.043
306.40 3.04
306.50 3.037
306.60 3.034
306.70 3.032
306.80 3.029
306.90 3.026
307.00 3.023
307.10 3.02
307.20 3.018
307.30 3.015
307.40 3.012
307.50 3.009
307.60 3.006
307.70 3.004
307.80 3.001
307.90 2.998
308.00 2.995
308.10 2.992
308.20 2.99
308.30 2.987
308.40 2.984
308.50 2.981
308.60 2.979
308.70 2.976
308.80 2.973
308.90 2.97
309.00 2.968
309.10 2.965
309.20 2.962
309.30 2.959
309.40 2.957
309.50 2.954
309.60 2.951
309.70 2.948
309.80 2.946
309.90 2.943
310.00 2.94
310.10 2.938
310.20 2.935
310.30 2.932
310.40 2.93
310.50 2.927
310.60 2.924
310.70 2.921
310.80 2.919
310.90 2.916
311.00 2.913
311.10 2.911
311.20 2.908
311.30 2.905
311.40 2.903
311.50 2.9
311.60 2.897
311.70 2.895
311.80 2.892
311.90 2.889
312.00 2.887
312.10 2.884
312.20 2.881
312.30 2.879
312.40 2.876
312.50 2.874
312.60 2.871
312.70 2.868
312.80 2.866
312.90 2.863
313.00 2.86
313.10 2.858
313.20 2.855
313.30 2.853
313.40 2.85
313.50 2.847
313.60 2.845
313.70 2.842
313.80 2.84
313.90 2.837
314.00 2.834
314.10 2.832
314.20 2.829
314.30 2.827
314.40 2.824
314.50 2.822
314.60 2.819
314.70 2.816
314.80 2.814
314.90 2.811
315.00 2.809
315.10 2.806
315.20 2.804
315.30 2.801
315.40 2.799
315.50 2.796
315.60 2.793
315.70 2.791
315.80 2.788
315.90 2.786
316.00 2.783
316.10 2.781
316.20 2.778
316.30 2.776
316.40 2.773
316.50 2.771
316.60 2.768
316.70 2.766
316.80 2.763
316.90 2.761
317.00 2.758
317.10 2.756
317.20 2.753
317.30 2.751
317.40 2.748
317.50 2.746
317.60 2.743
317.70 2.741
317.80 2.738
317.90 2.736
318.00 2.733
318.10 2.731
318.20 2.729
318.30 2.726
318.40 2.724
318.50 2.721
318.60 2.719
318.70 2.716
318.80 2.714
318.90 2.711
319.00 2.709
319.10 2.707
319.20 2.704
319.30 2.702
319.40 2.699
319.50 2.697
319.60 2.694
319.70 2.692
319.80 2.69
319.90 2.687
320.00 2.685
320.10 2.682
320.20 2.68
320.30 2.678
320.40 2.675
320.50 2.673
320.60 2.67
320.70 2.668
320.80 2.666
320.90 2.663
321.00 2.661
321.10 2.658
321.20 2.656
321.30 2.654
321.40 2.651
321.50 2.649
321.60 2.647
321.70 2.644
321.80 2.642
321.90 2.639
322.00 2.637
322.10 2.635
322.20 2.632
322.30 2.63
322.40 2.628
322.50 2.625
322.60 2.623
322.70 2.621
322.80 2.618
322.90 2.616
323.00 2.614
323.10 2.611
323.20 2.609
323.30 2.607
323.40 2.604
323.50 2.602
323.60 2.6
323.70 2.597
323.80 2.595
323.90 2.593
324.00 2.591
324.10 2.588
324.20 2.586
324.30 2.584
324.40 2.581
324.50 2.579
324.60 2.577
324.70 2.575
324.80 2.572
324.90 2.57
325.00 2.568
325.10 2.565
325.20 2.563
325.30 2.561
325.40 2.559
325.50 2.556
325.60 2.554
325.70 2.552
325.80 2.55
325.90 2.547
326.00 2.545
326.10 2.543
326.20 2.541
326.30 2.538
326.40 2.536
326.50 2.534
326.60 2.532
326.70 2.529
326.80 2.527
326.90 2.525
327.00 2.523
327.10 2.521
327.20 2.518
327.30 2.516
327.40 2.514
327.50 2.512
327.60 2.51
327.70 2.507
327.80 2.505
327.90 2.503
328.00 2.501
328.10 2.499
328.20 2.496
328.30 2.494
328.40 2.492
328.50 2.49
328.60 2.488
328.70 2.485
328.80 2.483
328.90 2.481
329.00 2.479
329.10 2.477
329.20 2.475
329.30 2.472
329.40 2.47
329.50 2.468
329.60 2.466
329.70 2.464
329.80 2.462
329.90 2.459
330.00 2.457
330.10 2.455
330.20 2.453
330.30 2.451
330.40 2.449
330.50 2.447
330.60 2.444
330.70 2.442
330.80 2.44
330.90 2.438
331.00 2.436
331.10 2.434
331.20 2.432
331.30 2.43
331.40 2.427
331.50 2.425
331.60 2.423
331.70 2.421
331.80 2.419
331.90 2.417
332.00 2.415
332.10 2.413
332.20 2.411
332.30 2.409
332.40 2.406
332.50 2.404
332.60 2.402
332.70 2.4
332.80 2.398
332.90 2.396
333.00 2.394
333.10 2.392
333.20 2.39
333.30 2.388
333.40 2.386
333.50 2.384
333.60 2.382
333.70 2.38
333.80 2.377
333.90 2.375
334.00 2.373
334.10 2.371
334.20 2.369
334.30 2.367
334.40 2.365
334.50 2.363
334.60 2.361
334.70 2.359
334.80 2.357
334.90 2.355
335.00 2.353
335.10 2.351
335.20 2.349
335.30 2.347
335.40 2.345
335.50 2.343
335.60 2.341
335.70 2.339
335.80 2.337
335.90 2.335
336.00 2.333
336.10 2.331
336.20 2.329
336.30 2.327
336.40 2.325
336.50 2.323
336.60 2.321
336.70 2.319
336.80 2.317
336.90 2.315
337.00 2.313
337.10 2.311
337.20 2.309
337.30 2.307
337.40 2.305
337.50 2.303
337.60 2.301
337.70 2.299
337.80 2.297
337.90 2.295
338.00 2.293
338.10 2.291
338.20 2.289
338.30 2.287
338.40 2.285
338.50 2.283
338.60 2.281
338.70 2.279
338.80 2.277
338.90 2.276
339.00 2.274
339.10 2.272
339.20 2.27
339.30 2.268
339.40 2.266
339.50 2.264
339.60 2.262
339.70 2.26
339.80 2.258
339.90 2.256
340.00 2.254
340.10 2.252
340.20 2.25
340.30 2.249
340.40 2.247
340.50 2.245
340.60 2.243
340.70 2.241
340.80 2.239
340.90 2.237
341.00 2.235
341.10 2.233
341.20 2.231
341.30 2.23
341.40 2.228
341.50 2.226
341.60 2.224
341.70 2.222
341.80 2.22
341.90 2.218
342.00 2.216
342.10 2.214
342.20 2.213
342.30 2.211
342.40 2.209
342.50 2.207
342.60 2.205
342.70 2.203
342.80 2.201
342.90 2.2
343.00 2.198
343.10 2.196
343.20 2.194
343.30 2.192
343.40 2.19
343.50 2.188
343.60 2.187
343.70 2.185
343.80 2.183
343.90 2.181
344.00 2.179
344.10 2.177
344.20 2.176
344.30 2.174
344.40 2.172
344.50 2.17
344.60 2.168
344.70 2.166
344.80 2.165
344.90 2.163
345.00 2.161
345.10 2.159
345.20 2.157
345.30 2.155
345.40 2.154
345.50 2.152
345.60 2.15
345.70 2.148
345.80 2.146
345.90 2.145
346.00 2.143
346.10 2.141
346.20 2.139
346.30 2.137
346.40 2.136
346.50 2.134
346.60 2.132
346.70 2.13
346.80 2.129
346.90 2.127
347.00 2.125
347.10 2.123
347.20 2.121
347.30 2.12
347.40 2.118
347.50 2.116
347.60 2.114
347.70 2.113
347.80 2.111
347.90 2.109
348.00 2.107
348.10 2.106
348.20 2.104
348.30 2.102
348.40 2.1
348.50 2.099
348.60 2.097
348.70 2.095
348.80 2.093
348.90 2.092
349.00 2.09
349.10 2.088
349.20 2.086
349.30 2.085
349.40 2.083
349.50 2.081
349.60 2.079
349.70 2.078
349.80 2.076
349.90 2.074
350.00 2.072
350.10 2.071
350.20 2.069
350.30 2.067
350.40 2.066
350.50 2.064
350.60 2.062
350.70 2.06
350.80 2.059
350.90 2.057
351.00 2.055
351.10 2.054
351.20 2.052
351.30 2.05
351.40 2.049
351.50 2.047
351.60 2.045
351.70 2.043
351.80 2.042
351.90 2.04
352.00 2.038
352.10 2.037
352.20 2.035
352.30 2.033
352.40 2.032
352.50 2.03
352.60 2.028
352.70 2.027
352.80 2.025
352.90 2.023
353.00 2.022
353.10 2.02
353.20 2.018
353.30 2.017
353.40 2.015
353.50 2.013
353.60 2.012
353.70 2.01
353.80 2.008
353.90 2.007
354.00 2.005
354.10 2.003
354.20 2.002
354.30 2
354.40 1.999
354.50 1.997
354.60 1.995
354.70 1.994
354.80 1.992
354.90 1.99
355.00 1.989
355.10 1.987
355.20 1.985
355.30 1.984
355.40 1.982
355.50 1.981
355.60 1.979
355.70 1.977
355.80 1.976
355.90 1.974
356.00 1.972
356.10 1.971
356.20 1.969
356.30 1.968
356.40 1.966
356.50 1.964
356.60 1.963
356.70 1.961
356.80 1.96
356.90 1.958
357.00 1.956
357.10 1.955
357.20 1.953
357.30 1.952
357.40 1.95
357.50 1.948
357.60 1.947
357.70 1.945
357.80 1.944
357.90 1.942
358.00 1.94
358.10 1.939
358.20 1.937
358.30 1.936
358.40 1.934
358.50 1.933
358.60 1.931
358.70 1.929
358.80 1.928
358.90 1.926
359.00 1.925
359.10 1.923
359.20 1.922
359.30 1.92
359.40 1.919
359.50 1.917
359.60 1.915
359.70 1.914
359.80 1.912
359.90 1.911
360.00 1.909
360.10 1.908
360.20 1.906
360.30 1.905
360.40 1.903
360.50 1.901
360.60 1.9
360.70 1.898
360.80 1.897
360.90 1.895
361.00 1.894
361.10 1.892
361.20 1.891
361.30 1.889
361.40 1.888
361.50 1.886
361.60 1.885
361.70 1.883
361.80 1.882
361.90 1.88
362.00 1.879
362.10 1.877
362.20 1.876
362.30 1.874
362.40 1.873
362.50 1.871
362.60 1.869
362.70 1.868
362.80 1.866
362.90 1.865
363.00 1.863
363.10 1.862
363.20 1.86
363.30 1.859
363.40 1.857
363.50 1.856
363.60 1.854
363.70 1.853
363.80 1.852
363.90 1.85
364.00 1.849
364.10 1.847
364.20 1.846
364.30 1.844
364.40 1.843
364.50 1.841
364.60 1.84
364.70 1.838
364.80 1.837
364.90 1.835
365.00 1.834
365.10 1.832
365.20 1.831
365.30 1.829
365.40 1.828
365.50 1.826
365.60 1.825
365.70 1.824
365.80 1.822
365.90 1.821
366.00 1.819
366.10 1.817
366.20 1.815
366.30 1.814
366.40 1.812
366.50 1.81
366.60 1.808
366.70 1.806
366.80 1.805
366.90 1.803
367.00 1.801
367.10 1.799
367.20 1.797
367.30 1.795
367.40 1.794
367.50 1.792
367.60 1.79
367.70 1.788
367.80 1.786
367.90 1.785
368.00 1.783
368.10 1.781
368.20 1.779
368.30 1.778
368.40 1.776
368.50 1.774
368.60 1.773
368.70 1.771
368.80 1.769
368.90 1.767
369.00 1.766
369.10 1.764
369.20 1.762
369.30 1.761
369.40 1.759
369.50 1.757
369.60 1.756
369.70 1.754
369.80 1.752
369.90 1.75
370.00 1.749
370.10 1.747
370.20 1.746
370.30 1.744
370.40 1.743
370.50 1.741
370.60 1.74
370.70 1.738
370.80 1.737
370.90 1.735
371.00 1.734
371.10 1.732
371.20 1.731
371.30 1.729
371.40 1.727
371.50 1.726
371.60 1.724
371.70 1.723
371.80 1.721
371.90 1.72
372.00 1.718
372.10 1.717
372.20 1.717
372.30 1.716
372.40 1.715
372.50 1.714
372.60 1.713
372.70 1.712
372.80 1.711
372.90 1.71
373.00 1.709
373.10 1.708
373.20 1.707
373.30 1.706
373.40 1.705
373.50 1.704
373.60 1.703
373.70 1.702
373.80 1.701
373.90 1.7
374.00 1.699
374.10 1.699
374.20 1.698
374.30 1.698
374.40 1.697
374.50 1.697
374.60 1.696
374.70 1.695
374.80 1.695
374.90 1.694
375.00 1.694
375.10 1.693
375.20 1.692
375.30 1.692
375.40 1.691
375.50 1.691
375.60 1.69
375.70 1.69
375.80 1.689
375.90 1.688
376.00 1.688
376.10 1.685
376.20 1.682
376.30 1.679
376.40 1.676
376.50 1.672
376.60 1.669
376.70 1.666
376.80 1.663
376.90 1.66
377.00 1.657
377.10 1.66
377.20 1.663
377.30 1.665
377.40 1.668
377.50 1.671
377.60 1.673
377.70 1.676
377.80 1.679
377.90 1.682
378.00 1.684
378.10 1.681
378.20 1.678
378.30 1.675
378.40 1.673
378.50 1.67
378.60 1.667
378.70 1.664
378.80 1.661
378.90 1.658
379.00 1.655
379.10 1.65
379.20 1.646
379.30 1.641
379.40 1.636
379.50 1.632
379.60 1.627
379.70 1.622
379.80 1.618
379.90 1.613
380.00 1.608
380.10 1.616
380.20 1.624
380.30 1.632
380.40 1.64
380.50 1.647
380.60 1.655
380.70 1.663
380.80 1.671
380.90 1.678
381.00 1.686
381.10 1.687
381.20 1.688
381.30 1.69
381.40 1.691
381.50 1.692
381.60 1.69
381.70 1.687
381.80 1.682
381.90 1.676
382.00 1.669
382.10 1.661
382.20 1.652
382.30 1.636
382.40 1.621
382.50 1.605
382.60 1.59
382.70 1.574
382.80 1.559
382.90 1.544
383.00 1.528
383.10 1.513
383.20 1.497
383.30 1.478
383.40 1.459
383.50 1.441
383.60 1.445
383.70 1.463
383.80 1.483
383.90 1.503
384.00 1.523
384.10 1.542
384.20 1.561
384.30 1.579
384.40 1.597
384.50 1.613
384.60 1.629
384.70 1.644
384.80 1.658
384.90 1.67
385.00 1.682
385.10 1.692
385.20 1.702
385.30 1.711
385.40 1.718
385.50 1.724
385.60 1.729
385.70 1.732
385.80 1.735
385.90 1.736
386.00 1.736
386.10 1.735
386.20 1.733
386.30 1.729
386.40 1.724
386.50 1.718
386.60 1.71
386.70 1.701
386.80 1.691
386.90 1.68
387.00 1.667
387.10 1.653
387.20 1.637
387.30 1.62
387.40 1.602
387.50 1.583
387.60 1.562
387.70 1.54
387.80 1.517
387.90 1.493
388.00 1.467
388.10 1.441
388.20 1.414
388.30 1.386
388.40 1.356
388.50 1.327
388.60 1.297
388.70 1.267
388.80 1.24
388.90 1.217
389.00 1.237
389.10 1.262
389.20 1.291
389.30 1.32
389.40 1.349
389.50 1.377
389.60 1.404
389.70 1.431
389.80 1.457
389.90 1.482
390.00 1.507
390.10 1.531
390.20 1.553
390.30 1.575
390.40 1.596
390.50 1.615
390.60 1.634
390.70 1.652
390.80 1.669
390.90 1.685
391.00 1.701
391.10 1.715
391.20 1.728
391.30 1.741
391.40 1.752
391.50 1.763
391.60 1.773
391.70 1.781
391.80 1.789
391.90 1.797
392.00 1.803
392.10 1.808
392.20 1.813
392.30 1.817
392.40 1.82
392.50 1.822
392.60 1.823
392.70 1.824
392.80 1.824
392.90 1.822
393.00 1.82
393.10 1.818
393.20 1.814
393.30 1.81
393.40 1.804
393.50 1.798
393.60 1.791
393.70 1.783
393.80 1.774
393.90 1.764
394.00 1.754
394.10 1.742
394.20 1.73
394.30 1.716
394.40 1.702
394.50 1.686
394.60 1.67
394.70 1.653
394.80 1.635
394.90 1.616
395.00 1.595
395.10 1.574
395.20 1.552
395.30 1.529
395.40 1.505
395.50 1.48
395.60 1.454
395.70 1.428
395.80 1.4
395.90 1.372
396.00 1.342
396.10 1.312
396.20 1.281
396.30 1.249
396.40 1.217
396.50 1.184
396.60 1.149
396.70 1.114
396.80 1.076
396.90 1.034
397.00 0.9876
397.10 1.029
397.20 1.068
397.30 1.105
397.40 1.139
397.50 1.173
397.60 1.205
397.70 1.235
397.80 1.266
397.90 1.295
398.00 1.324
398.10 1.351
398.20 1.378
398.30 1.404
398.40 1.429
398.50 1.454
398.60 1.477
398.70 1.5
398.80 1.522
398.90 1.543
399.00 1.563
399.10 1.583
399.20 1.601
399.30 1.619
399.40 1.636
399.50 1.652
399.60 1.668
399.70 1.683
399.80 1.697
399.90 1.71
400.00 1.723
400.10 1.735
400.20 1.746
400.30 1.757
400.40 1.768
400.50 1.777
400.60 1.787
400.70 1.795
400.80 1.803
400.90 1.811
401.00 1.818
401.10 1.825
401.20 1.831
401.30 1.837
401.40 1.842
401.50 1.847
401.60 1.852
401.70 1.856
401.80 1.86
401.90 1.863
402.00 1.867
402.10 1.869
402.20 1.872
402.30 1.874
402.40 1.876
402.50 1.878
402.60 1.879
402.70 1.88
402.80 1.88
402.90 1.881
403.00 1.881
403.10 1.881
403.20 1.881
403.30 1.88
403.40 1.879
403.50 1.878
403.60 1.876
403.70 1.875
403.80 1.873
403.90 1.87
404.00 1.868
404.10 1.865
404.20 1.862
404.30 1.859
404.40 1.855
404.50 1.851
404.60 1.847
404.70 1.842
404.80 1.838
404.90 1.832
405.00 1.827
405.10 1.821
405.20 1.815
405.30 1.809
405.40 1.802
405.50 1.795
405.60 1.787
405.70 1.779
405.80 1.771
405.90 1.762
406.00 1.753
406.10 1.744
406.20 1.734
406.30 1.724
406.40 1.713
406.50 1.701
406.60 1.69
406.70 1.677
406.80 1.664
406.90 1.651
407.00 1.637
407.10 1.623
407.20 1.608
407.30 1.592
407.40 1.576
407.50 1.559
407.60 1.542
407.70 1.524
407.80 1.505
407.90 1.486
408.00 1.466
408.10 1.445
408.20 1.424
408.30 1.402
408.40 1.38
408.50 1.356
408.60 1.332
408.70 1.308
408.80 1.282
408.90 1.256
409.00 1.23
409.10 1.203
409.20 1.175
409.30 1.146
409.40 1.116
409.50 1.086
409.60 1.055
409.70 1.023
409.80 0.9887
409.90 0.953
410.00 0.9094
410.10 0.8683
410.20 0.8297
410.30 0.8843
410.40 0.9309
410.50 0.9695
410.60 1.002
410.70 1.034
410.80 1.065
410.90 1.093
411.00 1.122
411.10 1.149
411.20 1.176
411.30 1.201
411.40 1.227
411.50 1.251
411.60 1.274
411.70 1.297
411.80 1.319
411.90 1.341
412.00 1.362
412.10 1.381
412.20 1.401
412.30 1.42
412.40 1.437
412.50 1.454
412.60 1.471
412.70 1.487
412.80 1.502
412.90 1.517
413.00 1.531
413.10 1.545
413.20 1.558
413.30 1.57
413.40 1.582
413.50 1.593
413.60 1.604
413.70 1.614
413.80 1.624
413.90 1.634
414.00 1.642
414.10 1.651
414.20 1.659
414.30 1.667
414.40 1.674
414.50 1.681
414.60 1.688
414.70 1.694
414.80 1.7
414.90 1.706
415.00 1.711
415.10 1.716
415.20 1.721
415.30 1.725
415.40 1.73
415.50 1.734
415.60 1.738
415.70 1.741
415.80 1.744
415.90 1.748
416.00 1.751
416.10 1.753
416.20 1.756
416.30 1.758
416.40 1.761
416.50 1.763
416.60 1.765
416.70 1.766
416.80 1.768
416.90 1.77
417.00 1.771
417.10 1.772
417.20 1.774
417.30 1.775
417.40 1.776
417.50 1.776
417.60 1.777
417.70 1.778
417.80 1.778
417.90 1.779
418.00 1.779
418.10 1.78
418.20 1.78
418.30 1.78
418.40 1.78
418.50 1.78
418.60 1.78
418.70 1.78
418.80 1.78
418.90 1.78
419.00 1.78
419.10 1.779
419.20 1.779
419.30 1.779
419.40 1.778
419.50 1.778
419.60 1.777
419.70 1.777
419.80 1.776
419.90 1.775
420.00 1.775
420.10 1.774
420.20 1.773
420.30 1.772
420.40 1.772
420.50 1.771
420.60 1.77
420.70 1.769
420.80 1.768
420.90 1.767
421.00 1.766
421.10 1.765
421.20 1.763
421.30 1.762
421.40 1.761
421.50 1.76
421.60 1.759
421.70 1.757
421.80 1.756
421.90 1.755
422.00 1.753
422.10 1.752
422.20 1.751
422.30 1.749
422.40 1.748
422.50 1.746
422.60 1.745
422.70 1.743
422.80 1.742
422.90 1.74
423.00 1.738
423.10 1.737
423.20 1.735
423.30 1.733
423.40 1.732
423.50 1.73
423.60 1.728
423.70 1.726
423.80 1.724
423.90 1.722
424.00 1.721
424.10 1.719
424.20 1.717
424.30 1.715
424.40 1.713
424.50 1.71
424.60 1.708
424.70 1.706
424.80 1.704
424.90 1.702
425.00 1.699
425.10 1.697
425.20 1.695
425.30 1.692
425.40 1.69
425.50 1.687
425.60 1.685
425.70 1.682
425.80 1.68
425.90 1.677
426.00 1.674
426.10 1.671
426.20 1.668
426.30 1.665
426.40 1.662
426.50 1.659
426.60 1.656
426.70 1.653
426.80 1.649
426.90 1.646
427.00 1.643
427.10 1.639
427.20 1.635
427.30 1.631
427.40 1.627
427.50 1.623
427.60 1.619
427.70 1.615
427.80 1.611
427.90 1.606
428.00 1.601
428.10 1.596
428.20 1.592
428.30 1.586
428.40 1.581
428.50 1.576
428.60 1.57
428.70 1.564
428.80 1.558
428.90 1.551
429.00 1.545
429.10 1.538
429.20 1.531
429.30 1.524
429.40 1.517
429.50 1.509
429.60 1.501
429.70 1.493
429.80 1.484
429.90 1.475
430.00 1.466
430.10 1.456
430.20 1.447
430.30 1.437
430.40 1.426
430.50 1.415
430.60 1.405
430.70 1.393
430.80 1.381
430.90 1.369
431.00 1.357
431.10 1.344
431.20 1.33
431.30 1.317
431.40 1.302
431.50 1.288
431.60 1.273
431.70 1.257
431.80 1.241
431.90 1.225
432.00 1.208
432.10 1.19
432.20 1.172
432.30 1.154
432.40 1.135
432.50 1.115
432.60 1.095
432.70 1.074
432.80 1.053
432.90 1.031
433.00 1.009
433.10 0.9862
433.20 0.9627
433.30 0.9386
433.40 0.9133
433.50 0.8871
433.60 0.8601
433.70 0.83
433.80 0.7954
433.90 0.7563
434.00 0.6782
434.10 0.679
434.20 0.7588
434.30 0.796
434.40 0.8291
434.50 0.8579
434.60 0.8837
434.70 0.9086
434.80 0.9325
434.90 0.9552
435.00 0.9773
435.10 0.9989
435.20 1.019
435.30 1.04
435.40 1.059
435.50 1.078
435.60 1.096
435.70 1.114
435.80 1.131
435.90 1.148
436.00 1.164
436.10 1.179
436.20 1.194
436.30 1.209
436.40 1.223
436.50 1.236
436.60 1.249
436.70 1.261
436.80 1.273
436.90 1.285
437.00 1.296
437.10 1.306
437.20 1.316
437.30 1.326
437.40 1.335
437.50 1.344
437.60 1.353
437.70 1.361
437.80 1.369
437.90 1.377
438.00 1.384
438.10 1.391
438.20 1.397
438.30 1.404
438.40 1.41
438.50 1.415
438.60 1.421
438.70 1.426
438.80 1.431
438.90 1.435
439.00 1.44
439.10 1.444
439.20 1.448
439.30 1.451
439.40 1.455
439.50 1.458
439.60 1.461
439.70 1.464
439.80 1.467
439.90 1.469
440.00 1.472
440.10 1.474
440.20 1.476
440.30 1.478
440.40 1.48
440.50 1.481
440.60 1.483
440.70 1.484
440.80 1.486
440.90 1.487
441.00 1.488
441.10 1.489
441.20 1.49
441.30 1.491
441.40 1.492
441.50 1.492
441.60 1.493
441.70 1.494
441.80 1.494
441.90 1.495
442.00 1.495
442.10 1.495
442.20 1.496
442.30 1.496
442.40 1.496
442.50 1.496
442.60 1.496
442.70 1.496
442.80 1.496
442.90 1.496
443.00 1.496
443.10 1.496
443.20 1.496
443.30 1.496
443.40 1.496
443.50 1.495
443.60 1.495
443.70 1.495
443.80 1.494
443.90 1.494
444.00 1.494
444.10 1.493
444.20 1.493
444.30 1.492
444.40 1.492
444.50 1.492
444.60 1.491
444.70 1.491
444.80 1.49
444.90 1.489
445.00 1.489
445.10 1.488
445.20 1.488
445.30 1.487
445.40 1.486
445.50 1.486
445.60 1.485
445.70 1.484
445.80 1.484
445.90 1.483
446.00 1.482
446.10 1.482
446.20 1.481
446.30 1.48
446.40 1.479
446.50 1.479
446.60 1.478
446.70 1.477
446.80 1.476
446.90 1.475
447.00 1.475
447.10 1.474
447.20 1.473
447.30 1.472
447.40 1.471
447.50 1.471
447.60 1.47
447.70 1.469
447.80 1.468
447.90 1.467
448.00 1.466
448.10 1.465
448.20 1.464
448.30 1.464
448.40 1.463
448.50 1.462
448.60 1.461
448.70 1.46
448.80 1.459
448.90 1.458
449.00 1.457
449.10 1.456
449.20 1.455
449.30 1.454
449.40 1.453
449.50 1.452
449.60 1.452
449.70 1.451
449.80 1.45
449.90 1.449
450.00 1.448
450.10 1.447
450.20 1.446
450.30 1.445
450.40 1.444
450.50 1.443
450.60 1.442
450.70 1.441
450.80 1.44
450.90 1.439
451.00 1.438
451.10 1.437
451.20 1.436
451.30 1.435
451.40 1.434
451.50 1.433
451.60 1.432
451.70 1.431
451.80 1.43
451.90 1.429
452.00 1.428
452.10 1.427
452.20 1.426
452.30 1.425
452.40 1.424
452.50 1.423
452.60 1.422
452.70 1.421
452.80 1.42
452.90 1.419
453.00 1.418
453.10 1.417
453.20 1.416
453.30 1.415
453.40 1.414
453.50 1.413
453.60 1.412
453.70 1.411
453.80 1.41
