# Version 2.1 - nm, norm@500 to 1, cut digits, bergeron_8500_65.dat_8500
# Wavelength(nm)  Flambda(ergs/cm^s/s/nm)
300.00 1.244
300.10 1.243
300.20 1.243
300.30 1.243
300.40 1.243
300.50 1.242
300.60 1.242
300.70 1.242
300.80 1.242
300.90 1.241
301.00 1.241
301.10 1.241
301.20 1.241
301.30 1.24
301.40 1.24
301.50 1.24
301.60 1.24
301.70 1.239
301.80 1.239
301.90 1.239
302.00 1.239
302.10 1.238
302.20 1.238
302.30 1.238
302.40 1.238
302.50 1.237
302.60 1.237
302.70 1.237
302.80 1.237
302.90 1.236
303.00 1.236
303.10 1.236
303.20 1.236
303.30 1.235
303.40 1.235
303.50 1.235
303.60 1.234
303.70 1.234
303.80 1.234
303.90 1.234
304.00 1.233
304.10 1.233
304.20 1.233
304.30 1.233
304.40 1.232
304.50 1.232
304.60 1.232
304.70 1.232
304.80 1.231
304.90 1.231
305.00 1.231
305.10 1.231
305.20 1.23
305.30 1.23
305.40 1.23
305.50 1.23
305.60 1.229
305.70 1.229
305.80 1.229
305.90 1.228
306.00 1.228
306.10 1.228
306.20 1.228
306.30 1.227
306.40 1.227
306.50 1.227
306.60 1.227
306.70 1.226
306.80 1.226
306.90 1.226
307.00 1.225
307.10 1.225
307.20 1.225
307.30 1.225
307.40 1.224
307.50 1.224
307.60 1.224
307.70 1.224
307.80 1.223
307.90 1.223
308.00 1.223
308.10 1.223
308.20 1.222
308.30 1.222
308.40 1.222
308.50 1.221
308.60 1.221
308.70 1.221
308.80 1.221
308.90 1.22
309.00 1.22
309.10 1.22
309.20 1.22
309.30 1.219
309.40 1.219
309.50 1.219
309.60 1.218
309.70 1.218
309.80 1.218
309.90 1.218
310.00 1.217
310.10 1.217
310.20 1.217
310.30 1.217
310.40 1.216
310.50 1.216
310.60 1.216
310.70 1.215
310.80 1.215
310.90 1.215
311.00 1.215
311.10 1.214
311.20 1.214
311.30 1.214
311.40 1.213
311.50 1.213
311.60 1.213
311.70 1.213
311.80 1.212
311.90 1.212
312.00 1.212
312.10 1.212
312.20 1.211
312.30 1.211
312.40 1.211
312.50 1.21
312.60 1.21
312.70 1.21
312.80 1.21
312.90 1.209
313.00 1.209
313.10 1.209
313.20 1.208
313.30 1.208
313.40 1.208
313.50 1.208
313.60 1.207
313.70 1.207
313.80 1.207
313.90 1.206
314.00 1.206
314.10 1.206
314.20 1.206
314.30 1.205
314.40 1.205
314.50 1.205
314.60 1.204
314.70 1.204
314.80 1.204
314.90 1.204
315.00 1.203
315.10 1.203
315.20 1.203
315.30 1.202
315.40 1.202
315.50 1.202
315.60 1.202
315.70 1.201
315.80 1.201
315.90 1.201
316.00 1.2
316.10 1.2
316.20 1.2
316.30 1.2
316.40 1.199
316.50 1.199
316.60 1.199
316.70 1.198
316.80 1.198
316.90 1.198
317.00 1.198
317.10 1.197
317.20 1.197
317.30 1.197
317.40 1.196
317.50 1.196
317.60 1.196
317.70 1.195
317.80 1.195
317.90 1.195
318.00 1.195
318.10 1.194
318.20 1.194
318.30 1.194
318.40 1.193
318.50 1.193
318.60 1.193
318.70 1.193
318.80 1.192
318.90 1.192
319.00 1.192
319.10 1.191
319.20 1.191
319.30 1.191
319.40 1.191
319.50 1.19
319.60 1.19
319.70 1.19
319.80 1.189
319.90 1.189
320.00 1.189
320.10 1.188
320.20 1.188
320.30 1.188
320.40 1.188
320.50 1.187
320.60 1.187
320.70 1.187
320.80 1.186
320.90 1.186
321.00 1.186
321.10 1.185
321.20 1.185
321.30 1.185
321.40 1.185
321.50 1.184
321.60 1.184
321.70 1.184
321.80 1.183
321.90 1.183
322.00 1.183
322.10 1.182
322.20 1.182
322.30 1.182
322.40 1.182
322.50 1.181
322.60 1.181
322.70 1.181
322.80 1.18
322.90 1.18
323.00 1.18
323.10 1.179
323.20 1.179
323.30 1.179
323.40 1.179
323.50 1.178
323.60 1.178
323.70 1.178
323.80 1.177
323.90 1.177
324.00 1.177
324.10 1.176
324.20 1.176
324.30 1.176
324.40 1.175
324.50 1.175
324.60 1.175
324.70 1.175
324.80 1.174
324.90 1.174
325.00 1.174
325.10 1.173
325.20 1.173
325.30 1.173
325.40 1.172
325.50 1.172
325.60 1.172
325.70 1.171
325.80 1.171
325.90 1.171
326.00 1.171
326.10 1.17
326.20 1.17
326.30 1.17
326.40 1.169
326.50 1.169
326.60 1.169
326.70 1.168
326.80 1.168
326.90 1.168
327.00 1.168
327.10 1.167
327.20 1.167
327.30 1.167
327.40 1.166
327.50 1.166
327.60 1.166
327.70 1.165
327.80 1.165
327.90 1.165
328.00 1.164
328.10 1.164
328.20 1.164
328.30 1.164
328.40 1.163
328.50 1.163
328.60 1.163
328.70 1.162
328.80 1.162
328.90 1.162
329.00 1.161
329.10 1.161
329.20 1.161
329.30 1.16
329.40 1.16
329.50 1.16
329.60 1.159
329.70 1.159
329.80 1.159
329.90 1.159
330.00 1.158
330.10 1.158
330.20 1.158
330.30 1.157
330.40 1.157
330.50 1.157
330.60 1.156
330.70 1.156
330.80 1.156
330.90 1.155
331.00 1.155
331.10 1.155
331.20 1.154
331.30 1.154
331.40 1.154
331.50 1.154
331.60 1.153
331.70 1.153
331.80 1.153
331.90 1.152
332.00 1.152
332.10 1.152
332.20 1.151
332.30 1.151
332.40 1.151
332.50 1.15
332.60 1.15
332.70 1.15
332.80 1.149
332.90 1.149
333.00 1.149
333.10 1.149
333.20 1.148
333.30 1.148
333.40 1.148
333.50 1.147
333.60 1.147
333.70 1.147
333.80 1.146
333.90 1.146
334.00 1.146
334.10 1.145
334.20 1.145
334.30 1.145
334.40 1.144
334.50 1.144
334.60 1.144
334.70 1.143
334.80 1.143
334.90 1.143
335.00 1.143
335.10 1.142
335.20 1.142
335.30 1.142
335.40 1.141
335.50 1.141
335.60 1.141
335.70 1.14
335.80 1.14
335.90 1.14
336.00 1.139
336.10 1.139
336.20 1.139
336.30 1.138
336.40 1.138
336.50 1.138
336.60 1.137
336.70 1.137
336.80 1.137
336.90 1.136
337.00 1.136
337.10 1.136
337.20 1.136
337.30 1.135
337.40 1.135
337.50 1.135
337.60 1.134
337.70 1.134
337.80 1.134
337.90 1.133
338.00 1.133
338.10 1.133
338.20 1.132
338.30 1.132
338.40 1.132
338.50 1.131
338.60 1.131
338.70 1.131
338.80 1.13
338.90 1.13
339.00 1.13
339.10 1.129
339.20 1.129
339.30 1.129
339.40 1.128
339.50 1.128
339.60 1.128
339.70 1.128
339.80 1.127
339.90 1.127
340.00 1.127
340.10 1.126
340.20 1.126
340.30 1.126
340.40 1.125
340.50 1.125
340.60 1.125
340.70 1.124
340.80 1.124
340.90 1.124
341.00 1.123
341.10 1.123
341.20 1.123
341.30 1.122
341.40 1.122
341.50 1.122
341.60 1.121
341.70 1.121
341.80 1.121
341.90 1.12
342.00 1.12
342.10 1.12
342.20 1.119
342.30 1.119
342.40 1.119
342.50 1.118
342.60 1.118
342.70 1.118
342.80 1.118
342.90 1.117
343.00 1.117
343.10 1.117
343.20 1.116
343.30 1.116
343.40 1.116
343.50 1.115
343.60 1.115
343.70 1.115
343.80 1.114
343.90 1.114
344.00 1.114
344.10 1.113
344.20 1.113
344.30 1.113
344.40 1.112
344.50 1.112
344.60 1.112
344.70 1.111
344.80 1.111
344.90 1.111
345.00 1.11
345.10 1.11
345.20 1.11
345.30 1.109
345.40 1.109
345.50 1.109
345.60 1.109
345.70 1.108
345.80 1.108
345.90 1.108
346.00 1.107
346.10 1.107
346.20 1.107
346.30 1.106
346.40 1.106
346.50 1.106
346.60 1.105
346.70 1.105
346.80 1.105
346.90 1.104
347.00 1.104
347.10 1.104
347.20 1.103
347.30 1.103
347.40 1.103
347.50 1.102
347.60 1.102
347.70 1.102
347.80 1.101
347.90 1.101
348.00 1.101
348.10 1.1
348.20 1.1
348.30 1.1
348.40 1.099
348.50 1.099
348.60 1.099
348.70 1.098
348.80 1.098
348.90 1.098
349.00 1.097
349.10 1.097
349.20 1.097
349.30 1.096
349.40 1.096
349.50 1.096
349.60 1.095
349.70 1.095
349.80 1.095
349.90 1.094
350.00 1.094
350.10 1.094
350.20 1.093
350.30 1.093
350.40 1.093
350.50 1.092
350.60 1.092
350.70 1.092
350.80 1.091
350.90 1.091
351.00 1.091
351.10 1.091
351.20 1.09
351.30 1.09
351.40 1.09
351.50 1.089
351.60 1.089
351.70 1.089
351.80 1.088
351.90 1.088
352.00 1.088
352.10 1.087
352.20 1.087
352.30 1.087
352.40 1.086
352.50 1.086
352.60 1.086
352.70 1.085
352.80 1.085
352.90 1.085
353.00 1.084
353.10 1.084
353.20 1.084
353.30 1.083
353.40 1.083
353.50 1.083
353.60 1.082
353.70 1.082
353.80 1.082
353.90 1.081
354.00 1.081
354.10 1.081
354.20 1.08
354.30 1.08
354.40 1.08
354.50 1.079
354.60 1.079
354.70 1.079
354.80 1.078
354.90 1.078
355.00 1.078
355.10 1.077
355.20 1.077
355.30 1.077
355.40 1.076
355.50 1.076
355.60 1.076
355.70 1.075
355.80 1.075
355.90 1.075
356.00 1.074
356.10 1.074
356.20 1.074
356.30 1.073
356.40 1.073
356.50 1.073
356.60 1.072
356.70 1.072
356.80 1.072
356.90 1.071
357.00 1.071
357.10 1.071
357.20 1.071
357.30 1.07
357.40 1.07
357.50 1.07
357.60 1.069
357.70 1.069
357.80 1.069
357.90 1.068
358.00 1.068
358.10 1.068
358.20 1.067
358.30 1.067
358.40 1.067
358.50 1.066
358.60 1.066
358.70 1.066
358.80 1.065
358.90 1.065
359.00 1.065
359.10 1.064
359.20 1.064
359.30 1.064
359.40 1.063
359.50 1.063
359.60 1.063
359.70 1.062
359.80 1.062
359.90 1.062
360.00 1.061
360.10 1.061
360.20 1.061
360.30 1.06
360.40 1.06
360.50 1.06
360.60 1.059
360.70 1.059
360.80 1.059
360.90 1.058
361.00 1.058
361.10 1.058
361.20 1.057
361.30 1.057
361.40 1.057
361.50 1.056
361.60 1.056
361.70 1.056
361.80 1.055
361.90 1.055
362.00 1.055
362.10 1.054
362.20 1.054
362.30 1.054
362.40 1.053
362.50 1.053
362.60 1.053
362.70 1.052
362.80 1.052
362.90 1.052
363.00 1.051
363.10 1.051
363.20 1.051
363.30 1.05
363.40 1.05
363.50 1.05
363.60 1.049
363.70 1.049
363.80 1.049
363.90 1.048
364.00 1.048
364.10 1.048
364.20 1.047
364.30 1.047
364.40 1.047
364.50 1.046
364.60 1.046
364.70 1.046
364.80 1.046
364.90 1.046
365.00 1.045
365.10 1.045
365.20 1.045
365.30 1.045
365.40 1.045
365.50 1.045
365.60 1.045
365.70 1.044
365.80 1.044
365.90 1.044
366.00 1.044
366.10 1.044
366.20 1.044
366.30 1.044
366.40 1.044
366.50 1.044
366.60 1.044
366.70 1.044
366.80 1.044
366.90 1.044
367.00 1.044
367.10 1.043
367.20 1.043
367.30 1.043
367.40 1.043
367.50 1.043
367.60 1.043
367.70 1.043
367.80 1.043
367.90 1.043
368.00 1.043
368.10 1.045
368.20 1.047
368.30 1.049
368.40 1.051
368.50 1.054
368.60 1.056
368.70 1.058
368.80 1.06
368.90 1.062
369.00 1.064
369.10 1.066
369.20 1.068
369.30 1.07
369.40 1.072
369.50 1.074
369.60 1.077
369.70 1.079
369.80 1.081
369.90 1.083
370.00 1.085
370.10 1.088
370.20 1.092
370.30 1.096
370.40 1.099
370.50 1.103
370.60 1.107
370.70 1.11
370.80 1.114
370.90 1.118
371.00 1.121
371.10 1.125
371.20 1.129
371.30 1.132
371.40 1.136
371.50 1.14
371.60 1.143
371.70 1.147
371.80 1.15
371.90 1.154
372.00 1.158
372.10 1.162
372.20 1.165
372.30 1.169
372.40 1.173
372.50 1.177
372.60 1.181
372.70 1.184
372.80 1.188
372.90 1.192
373.00 1.196
373.10 1.199
373.20 1.203
373.30 1.207
373.40 1.211
373.50 1.215
373.60 1.218
373.70 1.222
373.80 1.226
373.90 1.23
374.00 1.233
374.10 1.236
374.20 1.239
374.30 1.242
374.40 1.245
374.50 1.248
374.60 1.251
374.70 1.254
374.80 1.257
374.90 1.26
375.00 1.263
375.10 1.266
375.20 1.269
375.30 1.272
375.40 1.275
375.50 1.278
375.60 1.281
375.70 1.284
375.80 1.287
375.90 1.29
376.00 1.293
376.10 1.294
376.20 1.296
376.30 1.297
376.40 1.298
376.50 1.3
376.60 1.301
376.70 1.303
376.80 1.304
376.90 1.305
377.00 1.307
377.10 1.305
377.20 1.302
377.30 1.3
377.40 1.298
377.50 1.296
377.60 1.294
377.70 1.292
377.80 1.29
377.90 1.288
378.00 1.286
378.10 1.27
378.20 1.254
378.30 1.238
378.40 1.222
378.50 1.206
378.60 1.19
378.70 1.174
378.80 1.158
378.90 1.142
379.00 1.126
379.10 1.095
379.20 1.064
379.30 1.033
379.40 1.002
379.50 0.9716
379.60 0.9408
379.70 0.91
379.80 0.8792
379.90 0.8485
380.00 0.8178
380.10 0.8581
380.20 0.8984
380.30 0.9386
380.40 0.9788
380.50 1.019
380.60 1.059
380.70 1.099
380.80 1.139
380.90 1.179
381.00 1.219
381.10 1.227
381.20 1.236
381.30 1.244
381.40 1.252
381.50 1.26
381.60 1.262
381.70 1.261
381.80 1.258
381.90 1.252
382.00 1.245
382.10 1.234
382.20 1.221
382.30 1.182
382.40 1.143
382.50 1.104
382.60 1.065
382.70 1.026
382.80 0.9869
382.90 0.9479
383.00 0.9091
383.10 0.8702
383.20 0.8314
383.30 0.7453
383.40 0.6402
383.50 0.5187
383.60 0.5459
383.70 0.665
383.80 0.766
383.90 0.8488
384.00 0.9177
384.10 0.9766
384.20 1.028
384.30 1.072
384.40 1.111
384.50 1.146
384.60 1.176
384.70 1.201
384.80 1.223
384.90 1.242
385.00 1.258
385.10 1.271
385.20 1.283
385.30 1.294
385.40 1.302
385.50 1.309
385.60 1.315
385.70 1.319
385.80 1.323
385.90 1.326
386.00 1.327
386.10 1.328
386.20 1.328
386.30 1.327
386.40 1.325
386.50 1.322
386.60 1.318
386.70 1.313
386.80 1.307
386.90 1.3
387.00 1.292
387.10 1.282
387.20 1.271
387.30 1.258
387.40 1.243
387.50 1.226
387.60 1.206
387.70 1.184
387.80 1.156
387.90 1.125
388.00 1.09
388.10 1.048
388.20 1
388.30 0.9477
388.40 0.8847
388.50 0.8141
388.60 0.7361
388.70 0.6377
388.80 0.5312
388.90 0.4165
389.00 0.5238
389.10 0.6274
389.20 0.7272
389.30 0.8063
389.40 0.8777
389.50 0.9413
389.60 0.9942
389.70 1.042
389.80 1.086
389.90 1.121
390.00 1.153
390.10 1.182
390.20 1.205
390.30 1.226
390.40 1.244
390.50 1.26
390.60 1.275
390.70 1.288
390.80 1.299
390.90 1.309
391.00 1.319
391.10 1.327
391.20 1.335
391.30 1.342
391.40 1.348
391.50 1.353
391.60 1.359
391.70 1.363
391.80 1.367
391.90 1.371
392.00 1.374
392.10 1.376
392.20 1.379
392.30 1.381
392.40 1.382
392.50 1.383
392.60 1.384
392.70 1.385
392.80 1.385
392.90 1.385
393.00 1.384
393.10 1.383
393.20 1.382
393.30 1.381
393.40 1.379
393.50 1.376
393.60 1.374
393.70 1.371
393.80 1.367
393.90 1.363
394.00 1.359
394.10 1.354
394.20 1.349
394.30 1.343
394.40 1.337
394.50 1.33
394.60 1.322
394.70 1.314
394.80 1.305
394.90 1.295
395.00 1.284
395.10 1.272
395.20 1.259
395.30 1.245
395.40 1.229
395.50 1.212
395.60 1.192
395.70 1.17
395.80 1.146
395.90 1.117
396.00 1.085
396.10 1.05
396.20 1.007
396.30 0.9591
396.40 0.906
396.50 0.8422
396.60 0.7722
396.70 0.696
396.80 0.6023
396.90 0.4978
397.00 0.3823
397.10 0.4879
397.20 0.5885
397.30 0.6841
397.40 0.7613
397.50 0.8321
397.60 0.8965
397.70 0.9502
397.80 0.9986
397.90 1.042
398.00 1.077
398.10 1.109
398.20 1.137
398.30 1.161
398.40 1.183
398.50 1.203
398.60 1.22
398.70 1.235
398.80 1.25
398.90 1.262
399.00 1.274
399.10 1.285
399.20 1.295
399.30 1.304
399.40 1.312
399.50 1.32
399.60 1.327
399.70 1.334
399.80 1.34
399.90 1.346
400.00 1.351
400.10 1.356
400.20 1.36
400.30 1.365
400.40 1.368
400.50 1.372
400.60 1.376
400.70 1.379
400.80 1.382
400.90 1.384
401.00 1.387
401.10 1.389
401.20 1.391
401.30 1.393
401.40 1.395
401.50 1.396
401.60 1.398
401.70 1.399
401.80 1.4
401.90 1.402
402.00 1.402
402.10 1.403
402.20 1.404
402.30 1.405
402.40 1.405
402.50 1.406
402.60 1.406
402.70 1.406
402.80 1.407
402.90 1.407
403.00 1.407
403.10 1.406
403.20 1.406
403.30 1.406
403.40 1.406
403.50 1.405
403.60 1.405
403.70 1.404
403.80 1.404
403.90 1.403
404.00 1.402
404.10 1.401
404.20 1.4
404.30 1.399
404.40 1.398
404.50 1.397
404.60 1.396
404.70 1.394
404.80 1.393
404.90 1.391
405.00 1.389
405.10 1.388
405.20 1.386
405.30 1.384
405.40 1.382
405.50 1.379
405.60 1.377
405.70 1.374
405.80 1.372
405.90 1.369
406.00 1.366
406.10 1.363
406.20 1.359
406.30 1.356
406.40 1.352
406.50 1.348
406.60 1.343
406.70 1.339
406.80 1.334
406.90 1.329
407.00 1.323
407.10 1.318
407.20 1.311
407.30 1.305
407.40 1.298
407.50 1.29
407.60 1.282
407.70 1.273
407.80 1.264
407.90 1.254
408.00 1.243
408.10 1.232
408.20 1.22
408.30 1.206
408.40 1.192
408.50 1.177
408.60 1.16
408.70 1.142
408.80 1.122
408.90 1.1
409.00 1.076
409.10 1.047
409.20 1.016
409.30 0.9817
409.40 0.9397
409.50 0.8928
409.60 0.841
409.70 0.7787
409.80 0.7112
409.90 0.6385
410.00 0.5471
410.10 0.4636
410.20 0.388
410.30 0.4991
410.40 0.5963
410.50 0.6796
410.60 0.748
410.70 0.8112
410.80 0.8691
410.90 0.9166
411.00 0.9595
411.10 0.9978
411.20 1.029
411.30 1.058
411.40 1.083
411.50 1.105
411.60 1.125
411.70 1.144
411.80 1.16
411.90 1.175
412.00 1.189
412.10 1.202
412.20 1.213
412.30 1.225
412.40 1.234
412.50 1.244
412.60 1.253
412.70 1.26
412.80 1.268
412.90 1.275
413.00 1.281
413.10 1.287
413.20 1.293
413.30 1.298
413.40 1.303
413.50 1.307
413.60 1.311
413.70 1.315
413.80 1.319
413.90 1.322
414.00 1.325
414.10 1.328
414.20 1.331
414.30 1.333
414.40 1.336
414.50 1.338
414.60 1.34
414.70 1.342
414.80 1.344
414.90 1.345
415.00 1.347
415.10 1.348
415.20 1.35
415.30 1.351
415.40 1.352
415.50 1.353
415.60 1.354
415.70 1.355
415.80 1.356
415.90 1.357
416.00 1.358
416.10 1.358
416.20 1.359
416.30 1.359
416.40 1.36
416.50 1.36
416.60 1.361
416.70 1.361
416.80 1.361
416.90 1.362
417.00 1.362
417.10 1.362
417.20 1.362
417.30 1.362
417.40 1.363
417.50 1.363
417.60 1.363
417.70 1.363
417.80 1.363
417.90 1.363
418.00 1.363
418.10 1.363
418.20 1.363
418.30 1.362
418.40 1.362
418.50 1.362
418.60 1.362
418.70 1.362
418.80 1.362
418.90 1.361
419.00 1.361
419.10 1.361
419.20 1.361
419.30 1.361
419.40 1.36
419.50 1.36
419.60 1.36
419.70 1.359
419.80 1.359
419.90 1.359
420.00 1.358
420.10 1.358
420.20 1.358
420.30 1.357
420.40 1.357
420.50 1.356
420.60 1.356
420.70 1.356
420.80 1.355
420.90 1.355
421.00 1.354
421.10 1.354
421.20 1.354
421.30 1.353
421.40 1.353
421.50 1.352
421.60 1.352
421.70 1.351
421.80 1.351
421.90 1.35
422.00 1.35
422.10 1.349
422.20 1.349
422.30 1.348
422.40 1.347
422.50 1.347
422.60 1.346
422.70 1.346
422.80 1.345
422.90 1.345
423.00 1.344
423.10 1.343
423.20 1.343
423.30 1.342
423.40 1.342
423.50 1.341
423.60 1.34
423.70 1.34
423.80 1.339
423.90 1.338
424.00 1.338
424.10 1.337
424.20 1.336
424.30 1.336
424.40 1.335
424.50 1.334
424.60 1.333
424.70 1.333
424.80 1.332
424.90 1.331
425.00 1.33
425.10 1.33
425.20 1.329
425.30 1.328
425.40 1.327
425.50 1.326
425.60 1.326
425.70 1.325
425.80 1.324
425.90 1.323
426.00 1.322
426.10 1.321
426.20 1.32
426.30 1.319
426.40 1.318
426.50 1.317
426.60 1.316
426.70 1.315
426.80 1.314
426.90 1.313
427.00 1.311
427.10 1.31
427.20 1.309
427.30 1.308
427.40 1.306
427.50 1.305
427.60 1.304
427.70 1.302
427.80 1.301
427.90 1.299
428.00 1.298
428.10 1.296
428.20 1.294
428.30 1.293
428.40 1.291
428.50 1.289
428.60 1.287
428.70 1.285
428.80 1.283
428.90 1.281
429.00 1.279
429.10 1.277
429.20 1.275
429.30 1.272
429.40 1.27
429.50 1.267
429.60 1.264
429.70 1.261
429.80 1.258
429.90 1.255
430.00 1.252
430.10 1.248
430.20 1.244
430.30 1.241
430.40 1.237
430.50 1.232
430.60 1.228
430.70 1.223
430.80 1.218
430.90 1.214
431.00 1.208
431.10 1.203
431.20 1.197
431.30 1.191
431.40 1.185
431.50 1.178
431.60 1.171
431.70 1.163
431.80 1.154
431.90 1.145
432.00 1.135
432.10 1.124
432.20 1.111
432.30 1.098
432.40 1.083
432.50 1.066
432.60 1.047
432.70 1.027
432.80 1.004
432.90 0.9795
433.00 0.9539
433.10 0.9255
433.20 0.8943
433.30 0.8604
433.40 0.8172
433.50 0.769
433.60 0.7157
433.70 0.6543
433.80 0.5848
433.90 0.5071
434.00 0.3986
434.10 0.401
434.20 0.5141
434.30 0.5905
434.40 0.6589
434.50 0.7193
434.60 0.7716
434.70 0.8188
434.80 0.8609
434.90 0.8937
435.00 0.9239
435.10 0.9513
435.20 0.976
435.30 0.9993
435.40 1.021
435.50 1.041
435.60 1.058
435.70 1.074
435.80 1.088
435.90 1.1
436.00 1.112
436.10 1.122
436.20 1.131
436.30 1.139
436.40 1.146
436.50 1.153
436.60 1.16
436.70 1.165
436.80 1.171
436.90 1.176
437.00 1.18
437.10 1.185
437.20 1.189
437.30 1.193
437.40 1.197
437.50 1.2
437.60 1.203
437.70 1.207
437.80 1.21
437.90 1.212
438.00 1.215
438.10 1.217
438.20 1.22
438.30 1.222
438.40 1.224
438.50 1.226
438.60 1.227
438.70 1.229
438.80 1.231
438.90 1.232
439.00 1.233
439.10 1.234
439.20 1.236
439.30 1.237
439.40 1.238
439.50 1.238
439.60 1.239
439.70 1.24
439.80 1.241
439.90 1.241
440.00 1.242
440.10 1.243
440.20 1.243
440.30 1.244
440.40 1.244
440.50 1.244
440.60 1.245
440.70 1.245
440.80 1.245
440.90 1.246
441.00 1.246
441.10 1.246
441.20 1.246
441.30 1.246
441.40 1.246
441.50 1.246
441.60 1.247
441.70 1.247
441.80 1.247
441.90 1.247
442.00 1.247
442.10 1.246
442.20 1.246
442.30 1.246
442.40 1.246
442.50 1.246
442.60 1.246
442.70 1.246
442.80 1.246
442.90 1.246
443.00 1.245
443.10 1.245
443.20 1.245
443.30 1.245
443.40 1.245
443.50 1.244
443.60 1.244
443.70 1.244
443.80 1.244
443.90 1.243
444.00 1.243
444.10 1.243
444.20 1.243
444.30 1.242
444.40 1.242
444.50 1.242
444.60 1.242
444.70 1.241
444.80 1.241
444.90 1.241
445.00 1.24
445.10 1.24
445.20 1.24
445.30 1.239
445.40 1.239
445.50 1.239
445.60 1.238
445.70 1.238
445.80 1.238
445.90 1.237
446.00 1.237
446.10 1.237
446.20 1.236
446.30 1.236
446.40 1.235
446.50 1.235
446.60 1.235
446.70 1.234
446.80 1.234
446.90 1.234
447.00 1.233
447.10 1.233
447.20 1.232
447.30 1.232
447.40 1.232
447.50 1.231
447.60 1.231
447.70 1.23
447.80 1.23
447.90 1.23
448.00 1.229
448.10 1.229
448.20 1.228
448.30 1.228
448.40 1.228
448.50 1.227
448.60 1.227
448.70 1.226
448.80 1.226
448.90 1.225
449.00 1.225
449.10 1.225
449.20 1.224
449.30 1.224
449.40 1.223
449.50 1.223
449.60 1.222
449.70 1.222
449.80 1.222
449.90 1.221
450.00 1.221
450.10 1.22
450.20 1.22
450.30 1.219
450.40 1.219
450.50 1.219
450.60 1.218
450.70 1.218
450.80 1.217
450.90 1.217
451.00 1.216
451.10 1.216
451.20 1.215
451.30 1.215
451.40 1.215
451.50 1.214
451.60 1.214
451.70 1.213
451.80 1.213
451.90 1.212
452.00 1.212
452.10 1.211
452.20 1.211
452.30 1.21
452.40 1.21
452.50 1.21
452.60 1.209
452.70 1.209
452.80 1.208
452.90 1.208
453.00 1.207
453.10 1.207
453.20 1.206
453.30 1.206
