# Version 2.1 - nm, norm@500 to 1, cut digits, bergeron_7500_80.dat_7500
# Wavelength(nm)  Flambda(ergs/cm^s/s/nm)
300.00 1.25
300.10 1.25
300.20 1.25
300.30 1.25
300.40 1.25
300.50 1.25
300.60 1.25
300.70 1.251
300.80 1.251
300.90 1.251
301.00 1.251
301.10 1.251
301.20 1.251
301.30 1.252
301.40 1.252
301.50 1.252
301.60 1.252
301.70 1.252
301.80 1.252
301.90 1.252
302.00 1.253
302.10 1.253
302.20 1.253
302.30 1.253
302.40 1.253
302.50 1.253
302.60 1.253
302.70 1.254
302.80 1.254
302.90 1.254
303.00 1.254
303.10 1.254
303.20 1.254
303.30 1.254
303.40 1.255
303.50 1.255
303.60 1.255
303.70 1.255
303.80 1.255
303.90 1.255
304.00 1.255
304.10 1.255
304.20 1.256
304.30 1.256
304.40 1.256
304.50 1.256
304.60 1.256
304.70 1.256
304.80 1.256
304.90 1.257
305.00 1.257
305.10 1.257
305.20 1.257
305.30 1.257
305.40 1.257
305.50 1.257
305.60 1.257
305.70 1.257
305.80 1.258
305.90 1.258
306.00 1.258
306.10 1.258
306.20 1.258
306.30 1.258
306.40 1.258
306.50 1.258
306.60 1.259
306.70 1.259
306.80 1.259
306.90 1.259
307.00 1.259
307.10 1.259
307.20 1.259
307.30 1.259
307.40 1.259
307.50 1.26
307.60 1.26
307.70 1.26
307.80 1.26
307.90 1.26
308.00 1.26
308.10 1.26
308.20 1.26
308.30 1.26
308.40 1.261
308.50 1.261
308.60 1.261
308.70 1.261
308.80 1.261
308.90 1.261
309.00 1.261
309.10 1.261
309.20 1.261
309.30 1.261
309.40 1.262
309.50 1.262
309.60 1.262
309.70 1.262
309.80 1.262
309.90 1.262
310.00 1.262
310.10 1.262
310.20 1.262
310.30 1.262
310.40 1.263
310.50 1.263
310.60 1.263
310.70 1.263
310.80 1.263
310.90 1.263
311.00 1.263
311.10 1.263
311.20 1.263
311.30 1.263
311.40 1.263
311.50 1.264
311.60 1.264
311.70 1.264
311.80 1.264
311.90 1.264
312.00 1.264
312.10 1.264
312.20 1.264
312.30 1.264
312.40 1.264
312.50 1.264
312.60 1.264
312.70 1.265
312.80 1.265
312.90 1.265
313.00 1.265
313.10 1.265
313.20 1.265
313.30 1.265
313.40 1.265
313.50 1.265
313.60 1.265
313.70 1.265
313.80 1.265
313.90 1.265
314.00 1.266
314.10 1.266
314.20 1.266
314.30 1.266
314.40 1.266
314.50 1.266
314.60 1.266
314.70 1.266
314.80 1.266
314.90 1.266
315.00 1.266
315.10 1.266
315.20 1.266
315.30 1.266
315.40 1.266
315.50 1.267
315.60 1.267
315.70 1.267
315.80 1.267
315.90 1.267
316.00 1.267
316.10 1.267
316.20 1.267
316.30 1.267
316.40 1.267
316.50 1.267
316.60 1.267
316.70 1.267
316.80 1.267
316.90 1.267
317.00 1.267
317.10 1.267
317.20 1.268
317.30 1.268
317.40 1.268
317.50 1.268
317.60 1.268
317.70 1.268
317.80 1.268
317.90 1.268
318.00 1.268
318.10 1.268
318.20 1.268
318.30 1.268
318.40 1.268
318.50 1.268
318.60 1.268
318.70 1.268
318.80 1.268
318.90 1.268
319.00 1.268
319.10 1.268
319.20 1.269
319.30 1.269
319.40 1.269
319.50 1.269
319.60 1.269
319.70 1.269
319.80 1.269
319.90 1.269
320.00 1.269
320.10 1.269
320.20 1.269
320.30 1.269
320.40 1.269
320.50 1.269
320.60 1.269
320.70 1.269
320.80 1.269
320.90 1.269
321.00 1.269
321.10 1.269
321.20 1.269
321.30 1.269
321.40 1.269
321.50 1.269
321.60 1.269
321.70 1.269
321.80 1.269
321.90 1.27
322.00 1.27
322.10 1.27
322.20 1.27
322.30 1.27
322.40 1.27
322.50 1.27
322.60 1.27
322.70 1.27
322.80 1.27
322.90 1.27
323.00 1.27
323.10 1.27
323.20 1.27
323.30 1.27
323.40 1.27
323.50 1.27
323.60 1.27
323.70 1.27
323.80 1.27
323.90 1.27
324.00 1.27
324.10 1.27
324.20 1.27
324.30 1.27
324.40 1.27
324.50 1.27
324.60 1.27
324.70 1.27
324.80 1.27
324.90 1.27
325.00 1.27
325.10 1.27
325.20 1.27
325.30 1.27
325.40 1.27
325.50 1.27
325.60 1.27
325.70 1.27
325.80 1.27
325.90 1.27
326.00 1.27
326.10 1.27
326.20 1.27
326.30 1.27
326.40 1.27
326.50 1.27
326.60 1.27
326.70 1.27
326.80 1.27
326.90 1.27
327.00 1.27
327.10 1.27
327.20 1.27
327.30 1.27
327.40 1.27
327.50 1.27
327.60 1.27
327.70 1.27
327.80 1.27
327.90 1.27
328.00 1.27
328.10 1.27
328.20 1.27
328.30 1.27
328.40 1.27
328.50 1.27
328.60 1.27
328.70 1.27
328.80 1.27
328.90 1.27
329.00 1.27
329.10 1.27
329.20 1.27
329.30 1.27
329.40 1.27
329.50 1.27
329.60 1.27
329.70 1.27
329.80 1.27
329.90 1.27
330.00 1.27
330.10 1.27
330.20 1.27
330.30 1.27
330.40 1.27
330.50 1.27
330.60 1.27
330.70 1.27
330.80 1.27
330.90 1.27
331.00 1.27
331.10 1.27
331.20 1.27
331.30 1.27
331.40 1.27
331.50 1.27
331.60 1.27
331.70 1.27
331.80 1.27
331.90 1.27
332.00 1.27
332.10 1.27
332.20 1.27
332.30 1.27
332.40 1.27
332.50 1.27
332.60 1.27
332.70 1.27
332.80 1.27
332.90 1.27
333.00 1.27
333.10 1.27
333.20 1.27
333.30 1.27
333.40 1.27
333.50 1.27
333.60 1.27
333.70 1.27
333.80 1.27
333.90 1.27
334.00 1.269
334.10 1.269
334.20 1.269
334.30 1.269
334.40 1.269
334.50 1.269
334.60 1.269
334.70 1.269
334.80 1.269
334.90 1.269
335.00 1.269
335.10 1.269
335.20 1.269
335.30 1.269
335.40 1.269
335.50 1.269
335.60 1.269
335.70 1.269
335.80 1.269
335.90 1.269
336.00 1.269
336.10 1.269
336.20 1.269
336.30 1.269
336.40 1.269
336.50 1.269
336.60 1.269
336.70 1.269
336.80 1.268
336.90 1.268
337.00 1.268
337.10 1.268
337.20 1.268
337.30 1.268
337.40 1.268
337.50 1.268
337.60 1.268
337.70 1.268
337.80 1.268
337.90 1.268
338.00 1.268
338.10 1.268
338.20 1.268
338.30 1.268
338.40 1.268
338.50 1.268
338.60 1.268
338.70 1.268
338.80 1.268
338.90 1.268
339.00 1.267
339.10 1.267
339.20 1.267
339.30 1.267
339.40 1.267
339.50 1.267
339.60 1.267
339.70 1.267
339.80 1.267
339.90 1.267
340.00 1.267
340.10 1.267
340.20 1.267
340.30 1.267
340.40 1.267
340.50 1.267
340.60 1.267
340.70 1.267
340.80 1.267
340.90 1.266
341.00 1.266
341.10 1.266
341.20 1.266
341.30 1.266
341.40 1.266
341.50 1.266
341.60 1.266
341.70 1.266
341.80 1.266
341.90 1.266
342.00 1.266
342.10 1.266
342.20 1.266
342.30 1.266
342.40 1.266
342.50 1.265
342.60 1.265
342.70 1.265
342.80 1.265
342.90 1.265
343.00 1.265
343.10 1.265
343.20 1.265
343.30 1.265
343.40 1.265
343.50 1.265
343.60 1.265
343.70 1.265
343.80 1.265
343.90 1.265
344.00 1.264
344.10 1.264
344.20 1.264
344.30 1.264
344.40 1.264
344.50 1.264
344.60 1.264
344.70 1.264
344.80 1.264
344.90 1.264
345.00 1.264
345.10 1.264
345.20 1.264
345.30 1.264
345.40 1.263
345.50 1.263
345.60 1.263
345.70 1.263
345.80 1.263
345.90 1.263
346.00 1.263
346.10 1.263
346.20 1.263
346.30 1.263
346.40 1.263
346.50 1.263
346.60 1.262
346.70 1.262
346.80 1.262
346.90 1.262
347.00 1.262
347.10 1.262
347.20 1.262
347.30 1.262
347.40 1.262
347.50 1.262
347.60 1.262
347.70 1.262
347.80 1.262
347.90 1.261
348.00 1.261
348.10 1.261
348.20 1.261
348.30 1.261
348.40 1.261
348.50 1.261
348.60 1.261
348.70 1.261
348.80 1.261
348.90 1.261
349.00 1.26
349.10 1.26
349.20 1.26
349.30 1.26
349.40 1.26
349.50 1.26
349.60 1.26
349.70 1.26
349.80 1.26
349.90 1.26
350.00 1.26
350.10 1.259
350.20 1.259
350.30 1.259
350.40 1.259
350.50 1.259
350.60 1.259
350.70 1.259
350.80 1.259
350.90 1.259
351.00 1.259
351.10 1.258
351.20 1.258
351.30 1.258
351.40 1.258
351.50 1.258
351.60 1.258
351.70 1.258
351.80 1.258
351.90 1.258
352.00 1.258
352.10 1.257
352.20 1.257
352.30 1.257
352.40 1.257
352.50 1.257
352.60 1.257
352.70 1.257
352.80 1.257
352.90 1.257
353.00 1.257
353.10 1.256
353.20 1.256
353.30 1.256
353.40 1.256
353.50 1.256
353.60 1.256
353.70 1.256
353.80 1.256
353.90 1.256
354.00 1.256
354.10 1.255
354.20 1.255
354.30 1.255
354.40 1.255
354.50 1.255
354.60 1.255
354.70 1.255
354.80 1.255
354.90 1.255
355.00 1.254
355.10 1.254
355.20 1.254
355.30 1.254
355.40 1.254
355.50 1.254
355.60 1.254
355.70 1.254
355.80 1.254
355.90 1.253
356.00 1.253
356.10 1.253
356.20 1.253
356.30 1.253
356.40 1.253
356.50 1.253
356.60 1.253
356.70 1.253
356.80 1.252
356.90 1.252
357.00 1.252
357.10 1.252
357.20 1.252
357.30 1.252
357.40 1.252
357.50 1.252
357.60 1.251
357.70 1.251
357.80 1.251
357.90 1.251
358.00 1.251
358.10 1.251
358.20 1.251
358.30 1.251
358.40 1.251
358.50 1.25
358.60 1.25
358.70 1.25
358.80 1.25
358.90 1.25
359.00 1.25
359.10 1.25
359.20 1.25
359.30 1.249
359.40 1.249
359.50 1.249
359.60 1.249
359.70 1.249
359.80 1.249
359.90 1.249
360.00 1.249
360.10 1.248
360.20 1.248
360.30 1.248
360.40 1.248
360.50 1.248
360.60 1.248
360.70 1.248
360.80 1.247
360.90 1.247
361.00 1.247
361.10 1.247
361.20 1.247
361.30 1.247
361.40 1.247
361.50 1.247
361.60 1.246
361.70 1.246
361.80 1.246
361.90 1.246
362.00 1.246
362.10 1.246
362.20 1.246
362.30 1.246
362.40 1.245
362.50 1.245
362.60 1.245
362.70 1.245
362.80 1.245
362.90 1.245
363.00 1.245
363.10 1.244
363.20 1.244
363.30 1.244
363.40 1.244
363.50 1.244
363.60 1.244
363.70 1.244
363.80 1.244
363.90 1.243
364.00 1.243
364.10 1.243
364.20 1.243
364.30 1.243
364.40 1.243
364.50 1.242
364.60 1.242
364.70 1.242
364.80 1.242
364.90 1.242
365.00 1.242
365.10 1.241
365.20 1.241
365.30 1.241
365.40 1.241
365.50 1.241
365.60 1.241
365.70 1.24
365.80 1.24
365.90 1.24
366.00 1.24
366.10 1.24
366.20 1.24
366.30 1.24
366.40 1.239
366.50 1.239
366.60 1.239
366.70 1.239
366.80 1.239
366.90 1.239
367.00 1.239
367.10 1.238
367.20 1.238
367.30 1.238
367.40 1.238
367.50 1.238
367.60 1.238
367.70 1.238
367.80 1.237
367.90 1.237
368.00 1.237
368.10 1.237
368.20 1.237
368.30 1.237
368.40 1.236
368.50 1.236
368.60 1.236
368.70 1.236
368.80 1.236
368.90 1.236
369.00 1.235
369.10 1.235
369.20 1.235
369.30 1.235
369.40 1.235
369.50 1.235
369.60 1.234
369.70 1.234
369.80 1.234
369.90 1.234
370.00 1.234
370.10 1.234
370.20 1.234
370.30 1.234
370.40 1.234
370.50 1.233
370.60 1.233
370.70 1.233
370.80 1.233
370.90 1.233
371.00 1.233
371.10 1.233
371.20 1.233
371.30 1.233
371.40 1.233
371.50 1.233
371.60 1.233
371.70 1.233
371.80 1.233
371.90 1.232
372.00 1.232
372.10 1.232
372.20 1.232
372.30 1.233
372.40 1.233
372.50 1.233
372.60 1.233
372.70 1.233
372.80 1.233
372.90 1.233
373.00 1.233
373.10 1.233
373.20 1.233
373.30 1.233
373.40 1.233
373.50 1.233
373.60 1.233
373.70 1.233
373.80 1.233
373.90 1.233
374.00 1.233
374.10 1.233
374.20 1.234
374.30 1.234
374.40 1.234
374.50 1.234
374.60 1.235
374.70 1.235
374.80 1.235
374.90 1.235
375.00 1.236
375.10 1.236
375.20 1.236
375.30 1.236
375.40 1.237
375.50 1.237
375.60 1.237
375.70 1.237
375.80 1.238
375.90 1.238
376.00 1.238
376.10 1.238
376.20 1.238
376.30 1.239
376.40 1.239
376.50 1.239
376.60 1.239
376.70 1.24
376.80 1.24
376.90 1.24
377.00 1.24
377.10 1.24
377.20 1.24
377.30 1.24
377.40 1.24
377.50 1.24
377.60 1.24
377.70 1.24
377.80 1.24
377.90 1.24
378.00 1.24
378.10 1.239
378.20 1.238
378.30 1.237
378.40 1.236
378.50 1.235
378.60 1.233
378.70 1.232
378.80 1.231
378.90 1.23
379.00 1.229
379.10 1.226
379.20 1.224
379.30 1.221
379.40 1.218
379.50 1.216
379.60 1.213
379.70 1.21
379.80 1.208
379.90 1.205
380.00 1.202
380.10 1.206
380.20 1.21
380.30 1.214
380.40 1.217
380.50 1.221
380.60 1.225
380.70 1.228
380.80 1.232
380.90 1.236
381.00 1.239
381.10 1.24
381.20 1.241
381.30 1.241
381.40 1.242
381.50 1.242
381.60 1.242
381.70 1.242
381.80 1.242
381.90 1.241
382.00 1.24
382.10 1.238
382.20 1.236
382.30 1.231
382.40 1.225
382.50 1.219
382.60 1.214
382.70 1.208
382.80 1.202
382.90 1.197
383.00 1.191
383.10 1.185
383.20 1.18
383.30 1.165
383.40 1.141
383.50 1.101
383.60 1.112
383.70 1.148
383.80 1.17
383.90 1.183
384.00 1.194
384.10 1.203
384.20 1.211
384.30 1.217
384.40 1.223
384.50 1.228
384.60 1.233
384.70 1.236
384.80 1.239
384.90 1.242
385.00 1.244
385.10 1.246
385.20 1.248
385.30 1.249
385.40 1.25
385.50 1.251
385.60 1.251
385.70 1.252
385.80 1.252
385.90 1.253
386.00 1.253
386.10 1.253
386.20 1.252
386.30 1.252
386.40 1.252
386.50 1.251
386.60 1.25
386.70 1.249
386.80 1.248
386.90 1.246
387.00 1.245
387.10 1.243
387.20 1.241
387.30 1.238
387.40 1.235
387.50 1.232
387.60 1.228
387.70 1.223
387.80 1.217
387.90 1.21
388.00 1.203
388.10 1.192
388.20 1.181
388.30 1.167
388.40 1.15
388.50 1.13
388.60 1.107
388.70 1.071
388.80 1.017
388.90 0.9433
389.00 1.014
389.10 1.067
389.20 1.105
389.30 1.128
389.40 1.148
389.50 1.166
389.60 1.179
389.70 1.192
389.80 1.202
389.90 1.21
390.00 1.217
390.10 1.223
390.20 1.228
390.30 1.232
390.40 1.236
390.50 1.239
390.60 1.242
390.70 1.244
390.80 1.247
390.90 1.248
391.00 1.25
391.10 1.252
391.20 1.253
391.30 1.254
391.40 1.255
391.50 1.256
391.60 1.257
391.70 1.257
391.80 1.258
391.90 1.259
392.00 1.259
392.10 1.259
392.20 1.26
392.30 1.26
392.40 1.26
392.50 1.26
392.60 1.26
392.70 1.26
392.80 1.26
392.90 1.26
393.00 1.26
393.10 1.259
393.20 1.259
393.30 1.259
393.40 1.258
393.50 1.258
393.60 1.257
393.70 1.256
393.80 1.256
393.90 1.255
394.00 1.254
394.10 1.253
394.20 1.251
394.30 1.25
394.40 1.249
394.50 1.247
394.60 1.245
394.70 1.243
394.80 1.241
394.90 1.239
395.00 1.236
395.10 1.233
395.20 1.23
395.30 1.226
395.40 1.221
395.50 1.217
395.60 1.211
395.70 1.205
395.80 1.198
395.90 1.19
396.00 1.18
396.10 1.169
396.20 1.154
396.30 1.136
396.40 1.116
396.50 1.087
396.60 1.054
396.70 1.015
396.80 0.9563
396.90 0.8619
397.00 0.732
397.10 0.8541
397.20 0.9462
397.30 1.008
397.40 1.048
397.50 1.082
397.60 1.111
397.70 1.132
397.80 1.15
397.90 1.165
398.00 1.176
398.10 1.186
398.20 1.195
398.30 1.202
398.40 1.208
398.50 1.213
398.60 1.217
398.70 1.221
398.80 1.225
398.90 1.228
399.00 1.231
399.10 1.234
399.20 1.236
399.30 1.238
399.40 1.24
399.50 1.241
399.60 1.243
399.70 1.244
399.80 1.245
399.90 1.246
400.00 1.247
400.10 1.248
400.20 1.249
400.30 1.25
400.40 1.25
400.50 1.251
400.60 1.251
400.70 1.252
400.80 1.252
400.90 1.253
401.00 1.253
401.10 1.253
401.20 1.253
401.30 1.253
401.40 1.254
401.50 1.254
401.60 1.254
401.70 1.254
401.80 1.254
401.90 1.254
402.00 1.254
402.10 1.254
402.20 1.254
402.30 1.254
402.40 1.254
402.50 1.254
402.60 1.254
402.70 1.254
402.80 1.253
402.90 1.253
403.00 1.253
403.10 1.253
403.20 1.253
403.30 1.253
403.40 1.253
403.50 1.252
403.60 1.252
403.70 1.252
403.80 1.252
403.90 1.251
404.00 1.251
404.10 1.251
404.20 1.251
404.30 1.25
404.40 1.25
404.50 1.25
404.60 1.249
404.70 1.249
404.80 1.248
404.90 1.248
405.00 1.248
405.10 1.247
405.20 1.247
405.30 1.246
405.40 1.246
405.50 1.245
405.60 1.245
405.70 1.244
405.80 1.243
405.90 1.243
406.00 1.242
406.10 1.241
406.20 1.241
406.30 1.24
406.40 1.239
406.50 1.238
406.60 1.237
406.70 1.236
406.80 1.235
406.90 1.233
407.00 1.232
407.10 1.231
407.20 1.229
407.30 1.227
407.40 1.226
407.50 1.224
407.60 1.222
407.70 1.219
407.80 1.217
407.90 1.214
408.00 1.211
408.10 1.207
408.20 1.203
408.30 1.199
408.40 1.194
408.50 1.189
408.60 1.183
408.70 1.177
408.80 1.169
408.90 1.161
409.00 1.152
409.10 1.14
409.20 1.127
409.30 1.113
409.40 1.093
409.50 1.069
409.60 1.042
409.70 1.002
409.80 0.9521
409.90 0.8931
410.00 0.795
410.10 0.6832
410.20 0.5578
410.30 0.7269
410.40 0.8505
410.50 0.9287
410.60 0.9796
410.70 1.022
410.80 1.057
410.90 1.081
411.00 1.102
411.10 1.119
411.20 1.132
411.30 1.143
411.40 1.153
411.50 1.161
411.60 1.169
411.70 1.175
411.80 1.181
411.90 1.186
412.00 1.19
412.10 1.194
412.20 1.198
412.30 1.201
412.40 1.204
412.50 1.206
412.60 1.209
412.70 1.211
412.80 1.212
412.90 1.214
413.00 1.215
413.10 1.217
413.20 1.218
413.30 1.219
413.40 1.22
413.50 1.221
413.60 1.221
413.70 1.222
413.80 1.223
413.90 1.223
414.00 1.224
414.10 1.224
414.20 1.224
414.30 1.225
414.40 1.225
414.50 1.225
414.60 1.225
414.70 1.226
414.80 1.226
414.90 1.226
415.00 1.226
415.10 1.226
415.20 1.226
415.30 1.226
415.40 1.226
415.50 1.226
415.60 1.226
415.70 1.226
415.80 1.226
415.90 1.226
416.00 1.226
416.10 1.226
416.20 1.226
416.30 1.226
416.40 1.226
416.50 1.226
416.60 1.226
416.70 1.226
416.80 1.225
416.90 1.225
417.00 1.225
417.10 1.225
417.20 1.225
417.30 1.225
417.40 1.225
417.50 1.224
417.60 1.224
417.70 1.224
417.80 1.224
417.90 1.224
418.00 1.224
418.10 1.223
418.20 1.223
418.30 1.223
418.40 1.223
418.50 1.223
418.60 1.222
418.70 1.222
418.80 1.222
418.90 1.222
419.00 1.222
419.10 1.221
419.20 1.221
419.30 1.221
419.40 1.221
419.50 1.221
419.60 1.22
419.70 1.22
419.80 1.22
419.90 1.22
420.00 1.219
420.10 1.219
420.20 1.219
420.30 1.219
420.40 1.219
420.50 1.218
420.60 1.218
420.70 1.218
420.80 1.218
420.90 1.217
421.00 1.217
421.10 1.217
421.20 1.217
421.30 1.216
421.40 1.216
421.50 1.216
421.60 1.216
421.70 1.215
421.80 1.215
421.90 1.215
422.00 1.215
422.10 1.214
422.20 1.214
422.30 1.214
422.40 1.214
422.50 1.213
422.60 1.213
422.70 1.213
422.80 1.212
422.90 1.212
423.00 1.212
423.10 1.212
423.20 1.211
423.30 1.211
423.40 1.211
423.50 1.211
423.60 1.21
423.70 1.21
423.80 1.21
423.90 1.21
424.00 1.209
424.10 1.209
424.20 1.209
424.30 1.208
424.40 1.208
424.50 1.208
424.60 1.207
424.70 1.207
424.80 1.207
424.90 1.207
425.00 1.206
425.10 1.206
425.20 1.206
425.30 1.205
425.40 1.205
425.50 1.205
425.60 1.204
425.70 1.204
425.80 1.204
425.90 1.203
426.00 1.203
426.10 1.203
426.20 1.202
426.30 1.202
426.40 1.202
426.50 1.201
426.60 1.201
426.70 1.201
426.80 1.2
426.90 1.2
427.00 1.199
427.10 1.199
427.20 1.199
427.30 1.198
427.40 1.198
427.50 1.198
427.60 1.197
427.70 1.197
427.80 1.196
427.90 1.196
428.00 1.195
428.10 1.195
428.20 1.194
428.30 1.194
428.40 1.194
428.50 1.193
428.60 1.193
428.70 1.192
428.80 1.191
428.90 1.191
429.00 1.19
429.10 1.19
429.20 1.189
429.30 1.188
429.40 1.188
429.50 1.187
429.60 1.186
429.70 1.186
429.80 1.185
429.90 1.184
430.00 1.183
430.10 1.182
430.20 1.181
430.30 1.18
430.40 1.179
430.50 1.178
430.60 1.177
430.70 1.175
430.80 1.174
430.90 1.172
431.00 1.171
431.10 1.169
431.20 1.167
431.30 1.165
431.40 1.163
431.50 1.161
431.60 1.158
431.70 1.156
431.80 1.153
431.90 1.149
432.00 1.146
432.10 1.142
432.20 1.137
432.30 1.131
432.40 1.126
432.50 1.118
432.60 1.11
432.70 1.101
432.80 1.09
432.90 1.079
433.00 1.065
433.10 1.05
433.20 1.032
433.30 1.013
433.40 0.9858
433.50 0.9525
433.60 0.9127
433.70 0.8498
433.80 0.7659
433.90 0.6612
434.00 0.4863
434.10 0.4901
434.20 0.6724
434.30 0.7736
434.40 0.8546
434.50 0.9157
434.60 0.9542
434.70 0.9864
434.80 1.012
434.90 1.031
435.00 1.048
435.10 1.063
435.20 1.075
435.30 1.087
435.40 1.097
435.50 1.105
435.60 1.112
435.70 1.119
435.80 1.124
435.90 1.129
436.00 1.133
436.10 1.137
436.20 1.14
436.30 1.143
436.40 1.145
436.50 1.147
436.60 1.149
436.70 1.151
436.80 1.152
436.90 1.154
437.00 1.155
437.10 1.156
437.20 1.157
437.30 1.158
437.40 1.159
437.50 1.159
437.60 1.16
437.70 1.161
437.80 1.161
437.90 1.162
438.00 1.162
438.10 1.162
438.20 1.163
438.30 1.163
438.40 1.163
438.50 1.164
438.60 1.164
438.70 1.164
438.80 1.164
438.90 1.164
439.00 1.164
439.10 1.164
439.20 1.164
439.30 1.164
439.40 1.164
439.50 1.164
439.60 1.164
439.70 1.164
439.80 1.164
439.90 1.164
440.00 1.164
440.10 1.164
440.20 1.164
440.30 1.164
440.40 1.163
440.50 1.163
440.60 1.163
440.70 1.163
440.80 1.163
440.90 1.163
441.00 1.163
441.10 1.163
441.20 1.162
441.30 1.162
441.40 1.162
441.50 1.162
441.60 1.162
441.70 1.161
441.80 1.161
441.90 1.161
442.00 1.161
442.10 1.161
442.20 1.161
442.30 1.16
442.40 1.16
442.50 1.16
442.60 1.16
442.70 1.159
442.80 1.159
442.90 1.159
443.00 1.159
443.10 1.159
443.20 1.158
443.30 1.158
443.40 1.158
443.50 1.158
443.60 1.157
443.70 1.157
443.80 1.157
443.90 1.157
444.00 1.156
444.10 1.156
444.20 1.156
444.30 1.156
444.40 1.155
444.50 1.155
444.60 1.155
444.70 1.155
444.80 1.154
444.90 1.154
445.00 1.154
445.10 1.154
445.20 1.153
445.30 1.153
445.40 1.153
445.50 1.153
445.60 1.152
445.70 1.152
445.80 1.152
445.90 1.152
446.00 1.151
446.10 1.151
446.20 1.151
446.30 1.151
446.40 1.15
446.50 1.15
446.60 1.15
446.70 1.15
446.80 1.149
446.90 1.149
447.00 1.149
447.10 1.149
447.20 1.148
447.30 1.148
447.40 1.148
447.50 1.147
447.60 1.147
447.70 1.147
447.80 1.147
447.90 1.146
448.00 1.146
448.10 1.146
448.20 1.146
448.30 1.145
448.40 1.145
448.50 1.145
448.60 1.145
448.70 1.144
448.80 1.144
448.90 1.144
449.00 1.143
449.10 1.143
449.20 1.143
449.30 1.143
449.40 1.142
449.50 1.142
449.60 1.142
449.70 1.142
449.80 1.141
449.90 1.141
450.00 1.141
450.10 1.14
450.20 1.14
450.30 1.14
450.40 1.14
450.50 1.139
450.60 1.139
450.70 1.139
450.80 1.139
450.90 1.138
451.00 1.138
451.10 1.138
451.20 1.137
451.30 1.137
451.40 1.137
451.50 1.137
451.60 1.136
451.70 1.136
451.80 1.136
451.90 1.135
452.00 1.135
452.10 1.135
452.20 1.135
452.30 1.134
452.40 1.134
452.50 1.134
452.60 1.134
452.70 1.133
452.80 1.133
452.90 1.133
453.00 1.132
453.10 1.132
453.20 1.132
453.30 1.132
453.40 1.131
453.50 1.131
453.60 1.131
453.70 1.131
453.80 1.13
453.90 1.13
454.00 1.13
454.10 1.129
454.20 1.129
454.30 1.129
454.40 1.129
454.50 1.128
