# Version 2.1 - nm, norm@500 to 1, cut digits, bergeron_25000_85.dat_25000
# Wavelength(nm)  Flambda(ergs/cm^s/s/nm)
300.00 4.253
300.10 4.248
300.20 4.243
300.30 4.239
300.40 4.234
300.50 4.23
300.60 4.225
300.70 4.221
300.80 4.216
300.90 4.212
301.00 4.207
301.10 4.203
301.20 4.198
301.30 4.194
301.40 4.189
301.50 4.185
301.60 4.18
301.70 4.176
301.80 4.171
301.90 4.167
302.00 4.163
302.10 4.158
302.20 4.154
302.30 4.149
302.40 4.145
302.50 4.14
302.60 4.136
302.70 4.132
302.80 4.127
302.90 4.123
303.00 4.118
303.10 4.114
303.20 4.11
303.30 4.105
303.40 4.101
303.50 4.097
303.60 4.092
303.70 4.088
303.80 4.084
303.90 4.079
304.00 4.075
304.10 4.071
304.20 4.066
304.30 4.062
304.40 4.058
304.50 4.053
304.60 4.049
304.70 4.045
304.80 4.04
304.90 4.036
305.00 4.032
305.10 4.028
305.20 4.023
305.30 4.019
305.40 4.015
305.50 4.011
305.60 4.006
305.70 4.002
305.80 3.998
305.90 3.994
306.00 3.99
306.10 3.985
306.20 3.981
306.30 3.977
306.40 3.973
306.50 3.969
306.60 3.964
306.70 3.96
306.80 3.956
306.90 3.952
307.00 3.948
307.10 3.944
307.20 3.94
307.30 3.935
307.40 3.931
307.50 3.927
307.60 3.923
307.70 3.919
307.80 3.915
307.90 3.911
308.00 3.907
308.10 3.903
308.20 3.898
308.30 3.894
308.40 3.89
308.50 3.886
308.60 3.882
308.70 3.878
308.80 3.874
308.90 3.87
309.00 3.866
309.10 3.862
309.20 3.858
309.30 3.854
309.40 3.85
309.50 3.846
309.60 3.842
309.70 3.838
309.80 3.834
309.90 3.83
310.00 3.826
310.10 3.822
310.20 3.818
310.30 3.814
310.40 3.81
310.50 3.806
310.60 3.802
310.70 3.798
310.80 3.794
310.90 3.79
311.00 3.786
311.10 3.782
311.20 3.778
311.30 3.774
311.40 3.771
311.50 3.767
311.60 3.763
311.70 3.759
311.80 3.755
311.90 3.751
312.00 3.747
312.10 3.743
312.20 3.739
312.30 3.736
312.40 3.732
312.50 3.728
312.60 3.724
312.70 3.72
312.80 3.716
312.90 3.712
313.00 3.709
313.10 3.705
313.20 3.701
313.30 3.697
313.40 3.693
313.50 3.69
313.60 3.686
313.70 3.682
313.80 3.678
313.90 3.674
314.00 3.671
314.10 3.667
314.20 3.663
314.30 3.659
314.40 3.656
314.50 3.652
314.60 3.648
314.70 3.644
314.80 3.641
314.90 3.637
315.00 3.633
315.10 3.629
315.20 3.626
315.30 3.622
315.40 3.618
315.50 3.614
315.60 3.611
315.70 3.607
315.80 3.603
315.90 3.6
316.00 3.596
316.10 3.592
316.20 3.589
316.30 3.585
316.40 3.581
316.50 3.578
316.60 3.574
316.70 3.57
316.80 3.567
316.90 3.563
317.00 3.559
317.10 3.556
317.20 3.552
317.30 3.549
317.40 3.545
317.50 3.541
317.60 3.538
317.70 3.534
317.80 3.531
317.90 3.527
318.00 3.523
318.10 3.52
318.20 3.516
318.30 3.513
318.40 3.509
318.50 3.505
318.60 3.502
318.70 3.498
318.80 3.495
318.90 3.491
319.00 3.488
319.10 3.484
319.20 3.481
319.30 3.477
319.40 3.474
319.50 3.47
319.60 3.467
319.70 3.463
319.80 3.46
319.90 3.456
320.00 3.453
320.10 3.449
320.20 3.446
320.30 3.442
320.40 3.439
320.50 3.435
320.60 3.432
320.70 3.428
320.80 3.425
320.90 3.421
321.00 3.418
321.10 3.414
321.20 3.411
321.30 3.408
321.40 3.404
321.50 3.401
321.60 3.397
321.70 3.394
321.80 3.39
321.90 3.387
322.00 3.384
322.10 3.38
322.20 3.377
322.30 3.373
322.40 3.37
322.50 3.367
322.60 3.363
322.70 3.36
322.80 3.357
322.90 3.353
323.00 3.35
323.10 3.346
323.20 3.343
323.30 3.34
323.40 3.336
323.50 3.333
323.60 3.33
323.70 3.326
323.80 3.323
323.90 3.32
324.00 3.316
324.10 3.313
324.20 3.31
324.30 3.306
324.40 3.303
324.50 3.3
324.60 3.297
324.70 3.293
324.80 3.29
324.90 3.287
325.00 3.283
325.10 3.28
325.20 3.277
325.30 3.274
325.40 3.27
325.50 3.267
325.60 3.264
325.70 3.261
325.80 3.257
325.90 3.254
326.00 3.251
326.10 3.248
326.20 3.244
326.30 3.241
326.40 3.238
326.50 3.235
326.60 3.232
326.70 3.228
326.80 3.225
326.90 3.222
327.00 3.219
327.10 3.216
327.20 3.212
327.30 3.209
327.40 3.206
327.50 3.203
327.60 3.2
327.70 3.197
327.80 3.193
327.90 3.19
328.00 3.187
328.10 3.184
328.20 3.181
328.30 3.178
328.40 3.174
328.50 3.171
328.60 3.168
328.70 3.165
328.80 3.162
328.90 3.159
329.00 3.156
329.10 3.153
329.20 3.15
329.30 3.146
329.40 3.143
329.50 3.14
329.60 3.137
329.70 3.134
329.80 3.131
329.90 3.128
330.00 3.125
330.10 3.122
330.20 3.119
330.30 3.116
330.40 3.113
330.50 3.11
330.60 3.106
330.70 3.103
330.80 3.1
330.90 3.097
331.00 3.094
331.10 3.091
331.20 3.088
331.30 3.085
331.40 3.082
331.50 3.079
331.60 3.076
331.70 3.073
331.80 3.07
331.90 3.067
332.00 3.064
332.10 3.061
332.20 3.058
332.30 3.055
332.40 3.052
332.50 3.049
332.60 3.046
332.70 3.043
332.80 3.04
332.90 3.037
333.00 3.034
333.10 3.031
333.20 3.028
333.30 3.026
333.40 3.023
333.50 3.02
333.60 3.017
333.70 3.014
333.80 3.011
333.90 3.008
334.00 3.005
334.10 3.002
334.20 2.999
334.30 2.996
334.40 2.993
334.50 2.99
334.60 2.987
334.70 2.985
334.80 2.982
334.90 2.979
335.00 2.976
335.10 2.973
335.20 2.97
335.30 2.967
335.40 2.964
335.50 2.962
335.60 2.959
335.70 2.956
335.80 2.953
335.90 2.95
336.00 2.947
336.10 2.944
336.20 2.942
336.30 2.939
336.40 2.936
336.50 2.933
336.60 2.93
336.70 2.927
336.80 2.925
336.90 2.922
337.00 2.919
337.10 2.916
337.20 2.913
337.30 2.91
337.40 2.908
337.50 2.905
337.60 2.902
337.70 2.899
337.80 2.896
337.90 2.894
338.00 2.891
338.10 2.888
338.20 2.885
338.30 2.883
338.40 2.88
338.50 2.877
338.60 2.874
338.70 2.872
338.80 2.869
338.90 2.866
339.00 2.863
339.10 2.861
339.20 2.858
339.30 2.855
339.40 2.852
339.50 2.85
339.60 2.847
339.70 2.844
339.80 2.841
339.90 2.839
340.00 2.836
340.10 2.833
340.20 2.831
340.30 2.828
340.40 2.825
340.50 2.822
340.60 2.82
340.70 2.817
340.80 2.814
340.90 2.812
341.00 2.809
341.10 2.806
341.20 2.804
341.30 2.801
341.40 2.798
341.50 2.796
341.60 2.793
341.70 2.79
341.80 2.788
341.90 2.785
342.00 2.782
342.10 2.78
342.20 2.777
342.30 2.774
342.40 2.772
342.50 2.769
342.60 2.766
342.70 2.764
342.80 2.761
342.90 2.759
343.00 2.756
343.10 2.753
343.20 2.751
343.30 2.748
343.40 2.746
343.50 2.743
343.60 2.74
343.70 2.738
343.80 2.735
343.90 2.733
344.00 2.73
344.10 2.727
344.20 2.725
344.30 2.722
344.40 2.72
344.50 2.717
344.60 2.715
344.70 2.712
344.80 2.709
344.90 2.707
345.00 2.704
345.10 2.702
345.20 2.699
345.30 2.697
345.40 2.694
345.50 2.692
345.60 2.689
345.70 2.686
345.80 2.684
345.90 2.681
346.00 2.679
346.10 2.676
346.20 2.674
346.30 2.671
346.40 2.669
346.50 2.666
346.60 2.664
346.70 2.661
346.80 2.659
346.90 2.656
347.00 2.654
347.10 2.651
347.20 2.649
347.30 2.646
347.40 2.644
347.50 2.641
347.60 2.639
347.70 2.636
347.80 2.634
347.90 2.631
348.00 2.629
348.10 2.627
348.20 2.624
348.30 2.622
348.40 2.619
348.50 2.617
348.60 2.614
348.70 2.612
348.80 2.609
348.90 2.607
349.00 2.605
349.10 2.602
349.20 2.6
349.30 2.597
349.40 2.595
349.50 2.592
349.60 2.59
349.70 2.588
349.80 2.585
349.90 2.583
350.00 2.58
350.10 2.578
350.20 2.576
350.30 2.573
350.40 2.571
350.50 2.568
350.60 2.566
350.70 2.564
350.80 2.561
350.90 2.559
351.00 2.556
351.10 2.554
351.20 2.552
351.30 2.549
351.40 2.547
351.50 2.545
351.60 2.542
351.70 2.54
351.80 2.538
351.90 2.535
352.00 2.533
352.10 2.53
352.20 2.528
352.30 2.526
352.40 2.523
352.50 2.521
352.60 2.519
352.70 2.516
352.80 2.514
352.90 2.512
353.00 2.509
353.10 2.507
353.20 2.505
353.30 2.503
353.40 2.5
353.50 2.498
353.60 2.496
353.70 2.493
353.80 2.491
353.90 2.489
354.00 2.486
354.10 2.484
354.20 2.482
354.30 2.48
354.40 2.477
354.50 2.475
354.60 2.473
354.70 2.47
354.80 2.468
354.90 2.466
355.00 2.464
355.10 2.461
355.20 2.459
355.30 2.457
355.40 2.455
355.50 2.452
355.60 2.45
355.70 2.448
355.80 2.446
355.90 2.443
356.00 2.441
356.10 2.439
356.20 2.437
356.30 2.434
356.40 2.432
356.50 2.43
356.60 2.428
356.70 2.425
356.80 2.423
356.90 2.421
357.00 2.419
357.10 2.417
357.20 2.414
357.30 2.412
357.40 2.41
357.50 2.408
357.60 2.406
357.70 2.403
357.80 2.401
357.90 2.399
358.00 2.397
358.10 2.395
358.20 2.392
358.30 2.39
358.40 2.388
358.50 2.386
358.60 2.384
358.70 2.382
358.80 2.379
358.90 2.377
359.00 2.375
359.10 2.373
359.20 2.371
359.30 2.369
359.40 2.366
359.50 2.364
359.60 2.362
359.70 2.36
359.80 2.358
359.90 2.356
360.00 2.353
360.10 2.351
360.20 2.349
360.30 2.347
360.40 2.345
360.50 2.343
360.60 2.341
360.70 2.339
360.80 2.336
360.90 2.334
361.00 2.332
361.10 2.33
361.20 2.328
361.30 2.326
361.40 2.324
361.50 2.322
361.60 2.32
361.70 2.318
361.80 2.315
361.90 2.313
362.00 2.311
362.10 2.309
362.20 2.307
362.30 2.305
362.40 2.303
362.50 2.301
362.60 2.299
362.70 2.297
362.80 2.295
362.90 2.293
363.00 2.29
363.10 2.288
363.20 2.286
363.30 2.284
363.40 2.282
363.50 2.28
363.60 2.278
363.70 2.276
363.80 2.274
363.90 2.272
364.00 2.27
364.10 2.268
364.20 2.266
364.30 2.264
364.40 2.262
364.50 2.26
364.60 2.258
364.70 2.256
364.80 2.254
364.90 2.252
365.00 2.25
365.10 2.248
365.20 2.246
365.30 2.244
365.40 2.242
365.50 2.24
365.60 2.238
365.70 2.236
365.80 2.234
365.90 2.232
366.00 2.23
366.10 2.227
366.20 2.225
366.30 2.223
366.40 2.221
366.50 2.218
366.60 2.216
366.70 2.214
366.80 2.212
366.90 2.209
367.00 2.207
367.10 2.205
367.20 2.203
367.30 2.2
367.40 2.198
367.50 2.196
367.60 2.194
367.70 2.191
367.80 2.189
367.90 2.187
368.00 2.185
368.10 2.183
368.20 2.18
368.30 2.178
368.40 2.176
368.50 2.174
368.60 2.171
368.70 2.169
368.80 2.167
368.90 2.165
369.00 2.162
369.10 2.16
369.20 2.158
369.30 2.156
369.40 2.154
369.50 2.151
369.60 2.149
369.70 2.147
369.80 2.145
369.90 2.142
370.00 2.14
370.10 2.138
370.20 2.136
370.30 2.134
370.40 2.132
370.50 2.13
370.60 2.127
370.70 2.125
370.80 2.123
370.90 2.121
371.00 2.119
371.10 2.117
371.20 2.115
371.30 2.113
371.40 2.111
371.50 2.108
371.60 2.106
371.70 2.104
371.80 2.102
371.90 2.1
372.00 2.098
372.10 2.096
372.20 2.094
372.30 2.092
372.40 2.09
372.50 2.088
372.60 2.086
372.70 2.085
372.80 2.083
372.90 2.081
373.00 2.079
373.10 2.077
373.20 2.075
373.30 2.073
373.40 2.071
373.50 2.069
373.60 2.067
373.70 2.066
373.80 2.064
373.90 2.062
374.00 2.06
374.10 2.058
374.20 2.056
374.30 2.054
374.40 2.053
374.50 2.051
374.60 2.049
374.70 2.047
374.80 2.045
374.90 2.044
375.00 2.042
375.10 2.04
375.20 2.038
375.30 2.037
375.40 2.035
375.50 2.033
375.60 2.031
375.70 2.029
375.80 2.028
375.90 2.026
376.00 2.024
376.10 2.022
376.20 2.021
376.30 2.019
376.40 2.017
376.50 2.015
376.60 2.013
376.70 2.011
376.80 2.01
376.90 2.008
377.00 2.006
377.10 2.005
377.20 2.004
377.30 2.003
377.40 2.002
377.50 2
377.60 1.999
377.70 1.998
377.80 1.997
377.90 1.996
378.00 1.995
378.10 1.993
378.20 1.992
378.30 1.99
378.40 1.988
378.50 1.987
378.60 1.985
378.70 1.984
378.80 1.982
378.90 1.98
379.00 1.979
379.10 1.977
379.20 1.975
379.30 1.974
379.40 1.972
379.50 1.971
379.60 1.969
379.70 1.967
379.80 1.966
379.90 1.964
380.00 1.963
380.10 1.962
380.20 1.962
380.30 1.962
380.40 1.962
380.50 1.961
380.60 1.961
380.70 1.961
380.80 1.961
380.90 1.961
381.00 1.96
381.10 1.959
381.20 1.958
381.30 1.957
381.40 1.956
381.50 1.955
381.60 1.953
381.70 1.952
381.80 1.95
381.90 1.948
382.00 1.945
382.10 1.943
382.20 1.94
382.30 1.937
382.40 1.934
382.50 1.93
382.60 1.927
382.70 1.923
382.80 1.92
382.90 1.917
383.00 1.913
383.10 1.91
383.20 1.907
383.30 1.903
383.40 1.9
383.50 1.897
383.60 1.897
383.70 1.898
383.80 1.9
383.90 1.903
384.00 1.905
384.10 1.908
384.20 1.91
384.30 1.912
384.40 1.914
384.50 1.916
384.60 1.918
384.70 1.919
384.80 1.921
384.90 1.922
385.00 1.923
385.10 1.923
385.20 1.924
385.30 1.924
385.40 1.923
385.50 1.923
385.60 1.922
385.70 1.921
385.80 1.92
385.90 1.919
386.00 1.917
386.10 1.915
386.20 1.913
386.30 1.91
386.40 1.907
386.50 1.904
386.60 1.9
386.70 1.896
386.80 1.892
386.90 1.888
387.00 1.883
387.10 1.878
387.20 1.873
387.30 1.867
387.40 1.861
387.50 1.855
387.60 1.848
387.70 1.841
387.80 1.834
387.90 1.827
388.00 1.819
388.10 1.811
388.20 1.803
388.30 1.795
388.40 1.787
388.50 1.779
388.60 1.771
388.70 1.764
388.80 1.759
388.90 1.754
389.00 1.757
389.10 1.762
389.20 1.768
389.30 1.775
389.40 1.782
389.50 1.789
389.60 1.796
389.70 1.803
389.80 1.81
389.90 1.817
390.00 1.823
390.10 1.83
390.20 1.836
390.30 1.841
390.40 1.847
390.50 1.852
390.60 1.857
390.70 1.862
390.80 1.866
390.90 1.87
391.00 1.874
391.10 1.877
391.20 1.88
391.30 1.883
391.40 1.885
391.50 1.888
391.60 1.89
391.70 1.891
391.80 1.892
391.90 1.893
392.00 1.893
392.10 1.894
392.20 1.894
392.30 1.893
392.40 1.892
392.50 1.891
392.60 1.889
392.70 1.888
392.80 1.885
392.90 1.883
393.00 1.88
393.10 1.877
393.20 1.873
393.30 1.869
393.40 1.865
393.50 1.86
393.60 1.855
393.70 1.849
393.80 1.843
393.90 1.837
394.00 1.831
394.10 1.823
394.20 1.816
394.30 1.808
394.40 1.8
394.50 1.791
394.60 1.782
394.70 1.773
394.80 1.763
394.90 1.753
395.00 1.742
395.10 1.731
395.20 1.72
395.30 1.708
395.40 1.695
395.50 1.683
395.60 1.67
395.70 1.656
395.80 1.642
395.90 1.628
396.00 1.613
396.10 1.598
396.20 1.582
396.30 1.566
396.40 1.55
396.50 1.533
396.60 1.516
396.70 1.499
396.80 1.481
396.90 1.464
397.00 1.447
397.10 1.46
397.20 1.475
397.30 1.491
397.40 1.507
397.50 1.523
397.60 1.538
397.70 1.553
397.80 1.568
397.90 1.582
398.00 1.595
398.10 1.609
398.20 1.622
398.30 1.634
398.40 1.646
398.50 1.658
398.60 1.67
398.70 1.681
398.80 1.692
398.90 1.702
399.00 1.712
399.10 1.722
399.20 1.731
399.30 1.74
399.40 1.749
399.50 1.757
399.60 1.765
399.70 1.773
399.80 1.78
399.90 1.787
400.00 1.794
400.10 1.801
400.20 1.807
400.30 1.813
400.40 1.819
400.50 1.824
400.60 1.829
400.70 1.834
400.80 1.838
400.90 1.843
401.00 1.847
401.10 1.85
401.20 1.854
401.30 1.857
401.40 1.86
401.50 1.863
401.60 1.865
401.70 1.868
401.80 1.87
401.90 1.871
402.00 1.873
402.10 1.874
402.20 1.875
402.30 1.876
402.40 1.877
402.50 1.877
402.60 1.877
402.70 1.877
402.80 1.877
402.90 1.877
403.00 1.876
403.10 1.875
403.20 1.874
403.30 1.872
403.40 1.871
403.50 1.869
403.60 1.867
403.70 1.865
403.80 1.862
403.90 1.859
404.00 1.856
404.10 1.853
404.20 1.85
404.30 1.846
404.40 1.842
404.50 1.838
404.60 1.834
404.70 1.829
404.80 1.824
404.90 1.819
405.00 1.814
405.10 1.808
405.20 1.802
405.30 1.796
405.40 1.79
405.50 1.783
405.60 1.777
405.70 1.769
405.80 1.762
405.90 1.754
406.00 1.746
406.10 1.738
406.20 1.73
406.30 1.721
406.40 1.712
406.50 1.702
406.60 1.693
406.70 1.683
406.80 1.672
406.90 1.662
407.00 1.651
407.10 1.639
407.20 1.628
407.30 1.616
407.40 1.604
407.50 1.591
407.60 1.579
407.70 1.565
407.80 1.552
407.90 1.538
408.00 1.524
408.10 1.509
408.20 1.494
408.30 1.479
408.40 1.463
408.50 1.447
408.60 1.431
408.70 1.414
408.80 1.397
408.90 1.379
409.00 1.361
409.10 1.342
409.20 1.323
409.30 1.303
409.40 1.283
409.50 1.262
409.60 1.24
409.70 1.218
409.80 1.194
409.90 1.171
410.00 1.148
410.10 1.135
410.20 1.129
410.30 1.14
410.40 1.157
410.50 1.179
410.60 1.2
410.70 1.221
410.80 1.242
410.90 1.261
411.00 1.28
411.10 1.298
411.20 1.316
411.30 1.333
411.40 1.349
411.50 1.365
411.60 1.38
411.70 1.395
411.80 1.409
411.90 1.424
412.00 1.437
412.10 1.45
412.20 1.463
412.30 1.476
412.40 1.488
412.50 1.5
412.60 1.511
412.70 1.522
412.80 1.533
412.90 1.544
413.00 1.554
413.10 1.564
413.20 1.573
413.30 1.582
413.40 1.591
413.50 1.6
413.60 1.608
413.70 1.616
413.80 1.624
413.90 1.632
414.00 1.639
414.10 1.646
414.20 1.653
414.30 1.66
414.40 1.666
414.50 1.672
414.60 1.678
414.70 1.684
414.80 1.689
414.90 1.695
415.00 1.7
415.10 1.705
415.20 1.709
415.30 1.714
415.40 1.718
415.50 1.722
415.60 1.727
415.70 1.73
415.80 1.734
415.90 1.737
416.00 1.741
416.10 1.744
416.20 1.747
416.30 1.75
416.40 1.753
416.50 1.755
416.60 1.758
416.70 1.76
416.80 1.762
416.90 1.764
417.00 1.766
417.10 1.768
417.20 1.77
417.30 1.772
417.40 1.773
417.50 1.775
417.60 1.776
417.70 1.777
417.80 1.779
417.90 1.78
418.00 1.781
418.10 1.782
418.20 1.782
418.30 1.783
418.40 1.784
418.50 1.784
418.60 1.785
418.70 1.785
418.80 1.786
418.90 1.786
419.00 1.786
419.10 1.786
419.20 1.786
419.30 1.786
419.40 1.786
419.50 1.786
419.60 1.786
419.70 1.786
419.80 1.785
419.90 1.785
420.00 1.785
420.10 1.784
420.20 1.784
420.30 1.783
420.40 1.783
420.50 1.782
420.60 1.781
420.70 1.781
420.80 1.78
420.90 1.779
421.00 1.778
421.10 1.777
421.20 1.776
421.30 1.775
421.40 1.774
421.50 1.773
421.60 1.772
421.70 1.771
421.80 1.769
421.90 1.768
422.00 1.767
422.10 1.765
422.20 1.764
422.30 1.763
422.40 1.761
422.50 1.759
422.60 1.758
422.70 1.756
422.80 1.755
422.90 1.753
423.00 1.751
423.10 1.749
423.20 1.748
423.30 1.746
423.40 1.744
423.50 1.742
423.60 1.74
423.70 1.738
423.80 1.735
423.90 1.733
424.00 1.731
424.10 1.729
424.20 1.726
424.30 1.724
424.40 1.722
424.50 1.719
424.60 1.717
424.70 1.714
424.80 1.711
424.90 1.709
425.00 1.706
425.10 1.703
425.20 1.7
425.30 1.697
425.40 1.694
425.50 1.691
425.60 1.688
425.70 1.684
425.80 1.681
425.90 1.678
426.00 1.674
426.10 1.67
426.20 1.667
426.30 1.663
426.40 1.659
426.50 1.655
426.60 1.651
426.70 1.647
426.80 1.643
426.90 1.638
427.00 1.634
427.10 1.629
427.20 1.624
427.30 1.62
427.40 1.615
427.50 1.61
427.60 1.604
427.70 1.599
427.80 1.594
427.90 1.588
428.00 1.582
428.10 1.576
428.20 1.57
428.30 1.564
428.40 1.558
428.50 1.552
428.60 1.545
428.70 1.538
428.80 1.531
428.90 1.524
429.00 1.517
429.10 1.51
429.20 1.502
429.30 1.495
429.40 1.487
429.50 1.479
429.60 1.471
429.70 1.462
429.80 1.454
429.90 1.445
430.00 1.436
430.10 1.427
430.20 1.418
430.30 1.409
430.40 1.399
430.50 1.389
430.60 1.379
430.70 1.369
430.80 1.359
430.90 1.348
431.00 1.338
431.10 1.327
431.20 1.315
431.30 1.304
431.40 1.292
431.50 1.28
431.60 1.268
431.70 1.256
431.80 1.243
431.90 1.23
432.00 1.217
432.10 1.203
432.20 1.189
432.30 1.175
432.40 1.16
432.50 1.145
432.60 1.13
432.70 1.115
432.80 1.098
432.90 1.082
433.00 1.065
433.10 1.047
433.20 1.028
433.30 1.009
433.40 0.9882
433.50 0.9664
433.60 0.9434
433.70 0.9174
433.80 0.8889
433.90 0.8582
434.00 0.8133
434.10 0.8137
434.20 0.8591
434.30 0.8884
434.40 0.9153
434.50 0.9399
434.60 0.9614
434.70 0.9817
434.80 1.001
434.90 1.019
435.00 1.036
435.10 1.052
435.20 1.067
435.30 1.082
435.40 1.097
435.50 1.11
435.60 1.124
435.70 1.137
435.80 1.149
435.90 1.162
436.00 1.174
436.10 1.185
436.20 1.197
436.30 1.208
436.40 1.218
436.50 1.229
436.60 1.239
436.70 1.248
436.80 1.258
436.90 1.267
437.00 1.276
437.10 1.285
437.20 1.294
437.30 1.302
437.40 1.31
437.50 1.318
437.60 1.325
437.70 1.333
437.80 1.34
437.90 1.347
438.00 1.354
438.10 1.361
438.20 1.367
438.30 1.373
438.40 1.379
438.50 1.385
438.60 1.391
438.70 1.396
438.80 1.402
438.90 1.407
439.00 1.412
439.10 1.417
439.20 1.421
439.30 1.426
439.40 1.43
439.50 1.434
439.60 1.438
439.70 1.442
439.80 1.446
439.90 1.45
440.00 1.453
440.10 1.456
440.20 1.459
440.30 1.463
440.40 1.465
440.50 1.468
440.60 1.471
440.70 1.473
440.80 1.476
440.90 1.478
441.00 1.48
441.10 1.482
441.20 1.484
441.30 1.486
441.40 1.488
441.50 1.49
441.60 1.491
441.70 1.493
441.80 1.494
441.90 1.496
442.00 1.497
442.10 1.498
442.20 1.499
442.30 1.5
442.40 1.501
442.50 1.502
442.60 1.503
442.70 1.503
442.80 1.504
442.90 1.505
443.00 1.505
443.10 1.506
443.20 1.506
443.30 1.507
443.40 1.507
443.50 1.507
443.60 1.508
443.70 1.508
443.80 1.508
443.90 1.508
444.00 1.508
444.10 1.508
444.20 1.508
444.30 1.508
444.40 1.508
444.50 1.508
444.60 1.508
444.70 1.508
444.80 1.508
444.90 1.507
445.00 1.507
445.10 1.507
445.20 1.507
445.30 1.506
445.40 1.506
445.50 1.506
445.60 1.505
445.70 1.505
445.80 1.505
445.90 1.504
446.00 1.504
446.10 1.503
446.20 1.503
446.30 1.502
446.40 1.502
446.50 1.501
446.60 1.501
446.70 1.5
446.80 1.499
446.90 1.499
447.00 1.498
447.10 1.498
447.20 1.497
447.30 1.496
447.40 1.496
447.50 1.495
447.60 1.494
447.70 1.493
447.80 1.493
447.90 1.492
448.00 1.491
448.10 1.491
448.20 1.49
448.30 1.489
448.40 1.488
448.50 1.487
448.60 1.487
448.70 1.486
448.80 1.485
448.90 1.484
449.00 1.483
449.10 1.483
449.20 1.482
449.30 1.481
449.40 1.48
449.50 1.479
449.60 1.478
449.70 1.477
449.80 1.477
449.90 1.476
450.00 1.475
450.10 1.474
450.20 1.473
450.30 1.472
450.40 1.471
450.50 1.47
450.60 1.469
450.70 1.468
450.80 1.467
450.90 1.466
451.00 1.466
451.10 1.465
451.20 1.464
451.30 1.463
451.40 1.462
451.50 1.461
451.60 1.46
451.70 1.459
451.80 1.458
451.90 1.457
452.00 1.456
452.10 1.455
452.20 1.454
452.30 1.453
452.40 1.452
452.50 1.451
452.60 1.45
452.70 1.449
452.80 1.448
452.90 1.447
453.00 1.446
453.10 1.445
453.20 1.444
453.30 1.443
453.40 1.442
453.50 1.441
453.60 1.44
453.70 1.439
453.80 1.438
453.90 1.437
454.00 1.436
454.10 1.435
