# Version 2.1 - nm, norm@500 to 1, cut digits, bergeron_3250_70.dat_3250
# Wavelength(nm)  Flambda(ergs/cm^s/s/nm)
300.00 0.08632
300.10 0.08655
300.20 0.08678
300.30 0.08701
300.40 0.08723
300.50 0.08746
300.60 0.08769
300.70 0.08792
300.80 0.08815
300.90 0.08838
301.00 0.08861
301.10 0.08883
301.20 0.08906
301.30 0.08929
301.40 0.08951
301.50 0.08974
301.60 0.08997
301.70 0.09019
301.80 0.09042
301.90 0.09064
302.00 0.09087
302.10 0.0911
302.20 0.09134
302.30 0.09158
302.40 0.09182
302.50 0.09205
302.60 0.09229
302.70 0.09253
302.80 0.09276
302.90 0.093
303.00 0.09323
303.10 0.09347
303.20 0.0937
303.30 0.09394
303.40 0.09417
303.50 0.0944
303.60 0.09464
303.70 0.09487
303.80 0.0951
303.90 0.09533
304.00 0.09557
304.10 0.09581
304.20 0.09606
304.30 0.0963
304.40 0.09655
304.50 0.09679
304.60 0.09703
304.70 0.09728
304.80 0.09752
304.90 0.09776
305.00 0.098
305.10 0.09825
305.20 0.09849
305.30 0.09873
305.40 0.09897
305.50 0.09921
305.60 0.09945
305.70 0.09969
305.80 0.09993
305.90 0.1002
306.00 0.1004
306.10 0.1007
306.20 0.1009
306.30 0.1012
306.40 0.1014
306.50 0.1017
306.60 0.1019
306.70 0.1022
306.80 0.1024
306.90 0.1027
307.00 0.1029
307.10 0.1032
307.20 0.1034
307.30 0.1037
307.40 0.1039
307.50 0.1042
307.60 0.1044
307.70 0.1047
307.80 0.1049
307.90 0.1052
308.00 0.1054
308.10 0.1057
308.20 0.1059
308.30 0.1062
308.40 0.1064
308.50 0.1067
308.60 0.107
308.70 0.1072
308.80 0.1075
308.90 0.1077
309.00 0.108
309.10 0.1082
309.20 0.1085
309.30 0.1088
309.40 0.109
309.50 0.1093
309.60 0.1095
309.70 0.1098
309.80 0.11
309.90 0.1103
310.00 0.1105
310.10 0.1108
310.20 0.1111
310.30 0.1113
310.40 0.1116
310.50 0.1119
310.60 0.1121
310.70 0.1124
310.80 0.1127
310.90 0.1129
311.00 0.1132
311.10 0.1135
311.20 0.1137
311.30 0.114
311.40 0.1143
311.50 0.1145
311.60 0.1148
311.70 0.115
311.80 0.1153
311.90 0.1156
312.00 0.1158
312.10 0.1161
312.20 0.1164
312.30 0.1166
312.40 0.1169
312.50 0.1172
312.60 0.1174
312.70 0.1177
312.80 0.118
312.90 0.1183
313.00 0.1185
313.10 0.1188
313.20 0.1191
313.30 0.1194
313.40 0.1196
313.50 0.1199
313.60 0.1202
313.70 0.1204
313.80 0.1207
313.90 0.121
314.00 0.1213
314.10 0.1215
314.20 0.1218
314.30 0.1221
314.40 0.1224
314.50 0.1226
314.60 0.1229
314.70 0.1232
314.80 0.1235
314.90 0.1238
315.00 0.124
315.10 0.1243
315.20 0.1246
315.30 0.1249
315.40 0.1252
315.50 0.1254
315.60 0.1257
315.70 0.126
315.80 0.1263
315.90 0.1265
316.00 0.1268
316.10 0.1271
316.20 0.1274
316.30 0.1277
316.40 0.128
316.50 0.1283
316.60 0.1285
316.70 0.1288
316.80 0.1291
316.90 0.1294
317.00 0.1297
317.10 0.13
317.20 0.1303
317.30 0.1305
317.40 0.1308
317.50 0.1311
317.60 0.1314
317.70 0.1317
317.80 0.132
317.90 0.1323
318.00 0.1325
318.10 0.1328
318.20 0.1331
318.30 0.1334
318.40 0.1337
318.50 0.134
318.60 0.1343
318.70 0.1346
318.80 0.1349
318.90 0.1352
319.00 0.1355
319.10 0.1358
319.20 0.1361
319.30 0.1364
319.40 0.1367
319.50 0.1369
319.60 0.1372
319.70 0.1375
319.80 0.1378
319.90 0.1381
320.00 0.1384
320.10 0.1387
320.20 0.139
320.30 0.1393
320.40 0.1396
320.50 0.1399
320.60 0.1402
320.70 0.1405
320.80 0.1408
320.90 0.1411
321.00 0.1414
321.10 0.1417
321.20 0.142
321.30 0.1423
321.40 0.1426
321.50 0.1429
321.60 0.1432
321.70 0.1435
321.80 0.1438
321.90 0.1441
322.00 0.1444
322.10 0.1447
322.20 0.145
322.30 0.1453
322.40 0.1457
322.50 0.146
322.60 0.1463
322.70 0.1466
322.80 0.1469
322.90 0.1472
323.00 0.1475
323.10 0.1478
323.20 0.1481
323.30 0.1484
323.40 0.1487
323.50 0.149
323.60 0.1493
323.70 0.1496
323.80 0.15
323.90 0.1503
324.00 0.1506
324.10 0.1509
324.20 0.1512
324.30 0.1515
324.40 0.1518
324.50 0.1522
324.60 0.1525
324.70 0.1528
324.80 0.1531
324.90 0.1534
325.00 0.1537
325.10 0.154
325.20 0.1544
325.30 0.1547
325.40 0.155
325.50 0.1553
325.60 0.1556
325.70 0.1559
325.80 0.1562
325.90 0.1566
326.00 0.1569
326.10 0.1572
326.20 0.1575
326.30 0.1578
326.40 0.1582
326.50 0.1585
326.60 0.1588
326.70 0.1591
326.80 0.1595
326.90 0.1598
327.00 0.1601
327.10 0.1604
327.20 0.1607
327.30 0.1611
327.40 0.1614
327.50 0.1617
327.60 0.162
327.70 0.1623
327.80 0.1627
327.90 0.163
328.00 0.1633
328.10 0.1636
328.20 0.164
328.30 0.1643
328.40 0.1646
328.50 0.165
328.60 0.1653
328.70 0.1656
328.80 0.1659
328.90 0.1663
329.00 0.1666
329.10 0.1669
329.20 0.1673
329.30 0.1676
329.40 0.1679
329.50 0.1682
329.60 0.1686
329.70 0.1689
329.80 0.1692
329.90 0.1695
330.00 0.1699
330.10 0.1702
330.20 0.1706
330.30 0.1709
330.40 0.1712
330.50 0.1716
330.60 0.1719
330.70 0.1722
330.80 0.1726
330.90 0.1729
331.00 0.1733
331.10 0.1736
331.20 0.1739
331.30 0.1743
331.40 0.1746
331.50 0.1749
331.60 0.1753
331.70 0.1756
331.80 0.1759
331.90 0.1763
332.00 0.1766
332.10 0.1769
332.20 0.1773
332.30 0.1776
332.40 0.178
332.50 0.1783
332.60 0.1787
332.70 0.179
332.80 0.1794
332.90 0.1797
333.00 0.18
333.10 0.1804
333.20 0.1807
333.30 0.1811
333.40 0.1814
333.50 0.1818
333.60 0.1821
333.70 0.1824
333.80 0.1828
333.90 0.1831
334.00 0.1834
334.10 0.1838
334.20 0.1842
334.30 0.1845
334.40 0.1849
334.50 0.1852
334.60 0.1856
334.70 0.1859
334.80 0.1863
334.90 0.1866
335.00 0.187
335.10 0.1873
335.20 0.1877
335.30 0.188
335.40 0.1884
335.50 0.1887
335.60 0.1891
335.70 0.1894
335.80 0.1898
335.90 0.1901
336.00 0.1904
336.10 0.1908
336.20 0.1912
336.30 0.1915
336.40 0.1919
336.50 0.1922
336.60 0.1926
336.70 0.193
336.80 0.1933
336.90 0.1937
337.00 0.194
337.10 0.1944
337.20 0.1947
337.30 0.1951
337.40 0.1955
337.50 0.1958
337.60 0.1962
337.70 0.1965
337.80 0.1969
337.90 0.1972
338.00 0.1976
338.10 0.1979
338.20 0.1983
338.30 0.1987
338.40 0.199
338.50 0.1994
338.60 0.1998
338.70 0.2001
338.80 0.2005
338.90 0.2009
339.00 0.2012
339.10 0.2016
339.20 0.202
339.30 0.2023
339.40 0.2027
339.50 0.203
339.60 0.2034
339.70 0.2038
339.80 0.2041
339.90 0.2045
340.00 0.2048
340.10 0.2052
340.20 0.2056
340.30 0.206
340.40 0.2063
340.50 0.2067
340.60 0.2071
340.70 0.2074
340.80 0.2078
340.90 0.2082
341.00 0.2086
341.10 0.2089
341.20 0.2093
341.30 0.2097
341.40 0.21
341.50 0.2104
341.60 0.2108
341.70 0.2111
341.80 0.2115
341.90 0.2119
342.00 0.2122
342.10 0.2126
342.20 0.213
342.30 0.2134
342.40 0.2138
342.50 0.2141
342.60 0.2145
342.70 0.2149
342.80 0.2153
342.90 0.2156
343.00 0.216
343.10 0.2164
343.20 0.2168
343.30 0.2172
343.40 0.2175
343.50 0.2179
343.60 0.2183
343.70 0.2186
343.80 0.219
343.90 0.2194
344.00 0.2198
344.10 0.2202
344.20 0.2205
344.30 0.2209
344.40 0.2213
344.50 0.2217
344.60 0.2221
344.70 0.2225
344.80 0.2228
344.90 0.2232
345.00 0.2236
345.10 0.224
345.20 0.2244
345.30 0.2248
345.40 0.2251
345.50 0.2255
345.60 0.2259
345.70 0.2263
345.80 0.2267
345.90 0.227
346.00 0.2274
346.10 0.2278
346.20 0.2282
346.30 0.2286
346.40 0.229
346.50 0.2294
346.60 0.2298
346.70 0.2302
346.80 0.2306
346.90 0.2309
347.00 0.2313
347.10 0.2317
347.20 0.2321
347.30 0.2325
347.40 0.2329
347.50 0.2333
347.60 0.2337
347.70 0.234
347.80 0.2344
347.90 0.2348
348.00 0.2352
348.10 0.2356
348.20 0.236
348.30 0.2364
348.40 0.2368
348.50 0.2372
348.60 0.2376
348.70 0.238
348.80 0.2384
348.90 0.2388
349.00 0.2392
349.10 0.2396
349.20 0.24
349.30 0.2404
349.40 0.2408
349.50 0.2412
349.60 0.2415
349.70 0.2419
349.80 0.2423
349.90 0.2427
350.00 0.2431
350.10 0.2435
350.20 0.2439
350.30 0.2443
350.40 0.2447
350.50 0.2451
350.60 0.2455
350.70 0.2459
350.80 0.2463
350.90 0.2467
351.00 0.2471
351.10 0.2476
351.20 0.248
351.30 0.2484
351.40 0.2488
351.50 0.2492
351.60 0.2495
351.70 0.2499
351.80 0.2503
351.90 0.2507
352.00 0.2511
352.10 0.2516
352.20 0.252
352.30 0.2524
352.40 0.2528
352.50 0.2532
352.60 0.2536
352.70 0.254
352.80 0.2544
352.90 0.2548
353.00 0.2552
353.10 0.2556
353.20 0.2561
353.30 0.2565
353.40 0.2569
353.50 0.2573
353.60 0.2577
353.70 0.2581
353.80 0.2585
353.90 0.2589
354.00 0.2593
354.10 0.2597
354.20 0.2601
354.30 0.2605
354.40 0.261
354.50 0.2614
354.60 0.2618
354.70 0.2622
354.80 0.2626
354.90 0.263
355.00 0.2635
355.10 0.2639
355.20 0.2643
355.30 0.2647
355.40 0.2651
355.50 0.2655
355.60 0.2659
355.70 0.2663
355.80 0.2667
355.90 0.2672
356.00 0.2676
356.10 0.268
356.20 0.2684
356.30 0.2688
356.40 0.2693
356.50 0.2697
356.60 0.2701
356.70 0.2705
356.80 0.2709
356.90 0.2714
357.00 0.2718
357.10 0.2722
357.20 0.2726
357.30 0.273
357.40 0.2735
357.50 0.2739
357.60 0.2743
357.70 0.2747
357.80 0.2751
357.90 0.2755
358.00 0.276
358.10 0.2764
358.20 0.2768
358.30 0.2772
358.40 0.2777
358.50 0.2781
358.60 0.2785
358.70 0.2789
358.80 0.2794
358.90 0.2798
359.00 0.2802
359.10 0.2807
359.20 0.2811
359.30 0.2815
359.40 0.2819
359.50 0.2823
359.60 0.2828
359.70 0.2832
359.80 0.2836
359.90 0.284
360.00 0.2844
360.10 0.2849
360.20 0.2853
360.30 0.2858
360.40 0.2862
360.50 0.2866
360.60 0.2871
360.70 0.2875
360.80 0.2879
360.90 0.2883
361.00 0.2888
361.10 0.2892
361.20 0.2896
361.30 0.2901
361.40 0.2905
361.50 0.2909
361.60 0.2914
361.70 0.2918
361.80 0.2922
361.90 0.2926
362.00 0.2931
362.10 0.2935
362.20 0.2939
362.30 0.2944
362.40 0.2948
362.50 0.2952
362.60 0.2957
362.70 0.2961
362.80 0.2965
362.90 0.297
363.00 0.2974
363.10 0.2978
363.20 0.2983
363.30 0.2987
363.40 0.2992
363.50 0.2996
363.60 0.3
363.70 0.3005
363.80 0.3009
363.90 0.3014
364.00 0.3018
364.10 0.3022
364.20 0.3027
364.30 0.3031
364.40 0.3035
364.50 0.304
364.60 0.3044
364.70 0.3049
364.80 0.3053
364.90 0.3058
365.00 0.3062
365.10 0.3066
365.20 0.3071
365.30 0.3075
365.40 0.308
365.50 0.3084
365.60 0.3089
365.70 0.3093
365.80 0.3097
365.90 0.3102
366.00 0.3106
366.10 0.3111
366.20 0.3115
366.30 0.312
366.40 0.3124
366.50 0.3129
366.60 0.3133
366.70 0.3138
366.80 0.3142
366.90 0.3147
367.00 0.3151
367.10 0.3155
367.20 0.316
367.30 0.3164
367.40 0.3169
367.50 0.3173
367.60 0.3178
367.70 0.3182
367.80 0.3187
367.90 0.3191
368.00 0.3195
368.10 0.32
368.20 0.3205
368.30 0.3209
368.40 0.3214
368.50 0.3218
368.60 0.3223
368.70 0.3227
368.80 0.3232
368.90 0.3236
369.00 0.3241
369.10 0.3245
369.20 0.325
369.30 0.3254
369.40 0.3259
369.50 0.3263
369.60 0.3268
369.70 0.3272
369.80 0.3277
369.90 0.3281
370.00 0.3286
370.10 0.329
370.20 0.3295
370.30 0.33
370.40 0.3304
370.50 0.3309
370.60 0.3313
370.70 0.3318
370.80 0.3323
370.90 0.3327
371.00 0.3332
371.10 0.3336
371.20 0.3341
371.30 0.3345
371.40 0.335
371.50 0.3354
371.60 0.3359
371.70 0.3363
371.80 0.3368
371.90 0.3373
372.00 0.3377
372.10 0.3382
372.20 0.3386
372.30 0.3391
372.40 0.3396
372.50 0.34
372.60 0.3405
372.70 0.341
372.80 0.3414
372.90 0.3419
373.00 0.3423
373.10 0.3428
373.20 0.3433
373.30 0.3437
373.40 0.3442
373.50 0.3446
373.60 0.3451
373.70 0.3456
373.80 0.346
373.90 0.3465
374.00 0.3469
374.10 0.3474
374.20 0.3479
374.30 0.3483
374.40 0.3488
374.50 0.3493
374.60 0.3498
374.70 0.3502
374.80 0.3507
374.90 0.3512
375.00 0.3516
375.10 0.3521
375.20 0.3526
375.30 0.353
375.40 0.3535
375.50 0.3539
375.60 0.3544
375.70 0.3549
375.80 0.3553
375.90 0.3558
376.00 0.3563
376.10 0.3567
376.20 0.3572
376.30 0.3577
376.40 0.3581
376.50 0.3586
376.60 0.3591
376.70 0.3595
376.80 0.36
376.90 0.3605
377.00 0.3609
377.10 0.3614
377.20 0.3619
377.30 0.3624
377.40 0.3628
377.50 0.3633
377.60 0.3638
377.70 0.3643
377.80 0.3647
377.90 0.3652
378.00 0.3657
378.10 0.3661
378.20 0.3666
378.30 0.3671
378.40 0.3676
378.50 0.368
378.60 0.3685
378.70 0.369
378.80 0.3695
378.90 0.3699
379.00 0.3704
379.10 0.3709
379.20 0.3714
379.30 0.3718
379.40 0.3723
379.50 0.3728
379.60 0.3733
379.70 0.3737
379.80 0.3742
379.90 0.3747
380.00 0.3752
380.10 0.3756
380.20 0.3761
380.30 0.3766
380.40 0.3771
380.50 0.3776
380.60 0.378
380.70 0.3785
380.80 0.379
380.90 0.3795
381.00 0.3799
381.10 0.3804
381.20 0.3809
381.30 0.3814
381.40 0.3819
381.50 0.3823
381.60 0.3828
381.70 0.3833
381.80 0.3838
381.90 0.3843
382.00 0.3847
382.10 0.3852
382.20 0.3857
382.30 0.3862
382.40 0.3867
382.50 0.3872
382.60 0.3876
382.70 0.3881
382.80 0.3886
382.90 0.3891
383.00 0.3896
383.10 0.3901
383.20 0.3905
383.30 0.391
383.40 0.3915
383.50 0.392
383.60 0.3925
383.70 0.393
383.80 0.3934
383.90 0.3939
384.00 0.3944
384.10 0.3949
384.20 0.3954
384.30 0.3959
384.40 0.3964
384.50 0.3968
384.60 0.3973
384.70 0.3978
384.80 0.3983
384.90 0.3988
385.00 0.3993
385.10 0.3998
385.20 0.4002
385.30 0.4007
385.40 0.4012
385.50 0.4017
385.60 0.4022
385.70 0.4027
385.80 0.4032
385.90 0.4037
386.00 0.4042
386.10 0.4046
386.20 0.4051
386.30 0.4056
386.40 0.4061
386.50 0.4066
386.60 0.4071
386.70 0.4076
386.80 0.4081
386.90 0.4086
387.00 0.4091
387.10 0.4095
387.20 0.41
387.30 0.4105
387.40 0.411
387.50 0.4115
387.60 0.412
387.70 0.4125
387.80 0.413
387.90 0.4135
388.00 0.414
388.10 0.4145
388.20 0.415
388.30 0.4155
388.40 0.4159
388.50 0.4164
388.60 0.4169
388.70 0.4174
388.80 0.4179
388.90 0.4184
389.00 0.4189
389.10 0.4194
389.20 0.4199
389.30 0.4204
389.40 0.4209
389.50 0.4214
389.60 0.4219
389.70 0.4224
389.80 0.4229
389.90 0.4234
390.00 0.4239
390.10 0.4244
390.20 0.4249
390.30 0.4254
390.40 0.4259
390.50 0.4264
390.60 0.4268
390.70 0.4273
390.80 0.4278
390.90 0.4283
391.00 0.4288
391.10 0.4293
391.20 0.4298
391.30 0.4303
391.40 0.4308
391.50 0.4313
391.60 0.4318
391.70 0.4323
391.80 0.4328
391.90 0.4333
392.00 0.4338
392.10 0.4343
392.20 0.4348
392.30 0.4353
392.40 0.4358
392.50 0.4363
392.60 0.4368
392.70 0.4373
392.80 0.4378
392.90 0.4383
393.00 0.4388
393.10 0.4393
393.20 0.4398
393.30 0.4403
393.40 0.4409
393.50 0.4414
393.60 0.4418
393.70 0.4423
393.80 0.4429
393.90 0.4434
394.00 0.4439
394.10 0.4444
394.20 0.4449
394.30 0.4454
394.40 0.4459
394.50 0.4464
394.60 0.4469
394.70 0.4474
394.80 0.4479
394.90 0.4484
395.00 0.4489
395.10 0.4494
395.20 0.4499
395.30 0.4504
395.40 0.4509
395.50 0.4514
395.60 0.4519
395.70 0.4524
395.80 0.4529
395.90 0.4535
396.00 0.454
396.10 0.4545
396.20 0.455
396.30 0.4555
396.40 0.456
396.50 0.4565
396.60 0.457
396.70 0.4575
396.80 0.458
396.90 0.4585
397.00 0.459
397.10 0.4595
397.20 0.46
397.30 0.4606
397.40 0.4611
397.50 0.4616
397.60 0.4621
397.70 0.4626
397.80 0.4631
397.90 0.4636
398.00 0.4641
398.10 0.4646
398.20 0.4651
398.30 0.4656
398.40 0.4661
398.50 0.4667
398.60 0.4672
398.70 0.4677
398.80 0.4682
398.90 0.4687
399.00 0.4692
399.10 0.4697
399.20 0.4702
399.30 0.4707
399.40 0.4713
399.50 0.4718
399.60 0.4723
399.70 0.4728
399.80 0.4733
399.90 0.4738
400.00 0.4743
400.10 0.4749
400.20 0.4754
400.30 0.4759
400.40 0.4764
400.50 0.4769
400.60 0.4774
400.70 0.4779
400.80 0.4784
400.90 0.4789
401.00 0.4794
401.10 0.48
401.20 0.4805
401.30 0.481
401.40 0.4815
401.50 0.482
401.60 0.4826
401.70 0.4831
401.80 0.4836
401.90 0.4841
402.00 0.4846
402.10 0.4851
402.20 0.4856
402.30 0.4861
402.40 0.4867
402.50 0.4872
402.60 0.4877
402.70 0.4882
402.80 0.4887
402.90 0.4892
403.00 0.4897
403.10 0.4903
403.20 0.4908
403.30 0.4913
403.40 0.4918
403.50 0.4923
403.60 0.4929
403.70 0.4934
403.80 0.4939
403.90 0.4944
404.00 0.4949
404.10 0.4954
404.20 0.496
404.30 0.4965
404.40 0.497
404.50 0.4975
404.60 0.498
404.70 0.4986
404.80 0.4991
404.90 0.4996
405.00 0.5001
405.10 0.5006
405.20 0.5011
405.30 0.5017
405.40 0.5022
405.50 0.5027
405.60 0.5032
405.70 0.5037
405.80 0.5043
405.90 0.5048
406.00 0.5053
406.10 0.5058
406.20 0.5063
406.30 0.5069
406.40 0.5074
406.50 0.5079
406.60 0.5084
406.70 0.509
406.80 0.5095
406.90 0.51
407.00 0.5105
407.10 0.511
407.20 0.5116
407.30 0.5121
407.40 0.5126
407.50 0.5131
407.60 0.5136
407.70 0.5141
407.80 0.5147
407.90 0.5152
408.00 0.5157
408.10 0.5162
408.20 0.5167
408.30 0.5173
408.40 0.5178
408.50 0.5183
408.60 0.5189
408.70 0.5194
408.80 0.5199
408.90 0.5204
409.00 0.5209
409.10 0.5215
409.20 0.522
409.30 0.5225
409.40 0.523
409.50 0.5236
409.60 0.5241
409.70 0.5246
409.80 0.5251
409.90 0.5256
410.00 0.5262
410.10 0.5267
410.20 0.5273
410.30 0.5278
410.40 0.5283
410.50 0.5288
410.60 0.5293
410.70 0.5298
410.80 0.5304
410.90 0.5309
411.00 0.5314
411.10 0.532
411.20 0.5325
411.30 0.533
411.40 0.5335
411.50 0.5341
411.60 0.5346
411.70 0.5351
411.80 0.5356
411.90 0.5362
412.00 0.5367
412.10 0.5372
412.20 0.5377
412.30 0.5383
412.40 0.5388
412.50 0.5393
412.60 0.5399
412.70 0.5404
412.80 0.5409
412.90 0.5414
413.00 0.542
413.10 0.5425
413.20 0.543
413.30 0.5435
413.40 0.5441
413.50 0.5446
413.60 0.5451
413.70 0.5457
413.80 0.5462
413.90 0.5467
414.00 0.5472
414.10 0.5478
414.20 0.5483
414.30 0.5488
414.40 0.5493
414.50 0.5499
414.60 0.5504
414.70 0.5509
414.80 0.5515
414.90 0.552
415.00 0.5525
415.10 0.553
415.20 0.5536
415.30 0.5541
415.40 0.5546
415.50 0.5552
415.60 0.5557
415.70 0.5562
415.80 0.5568
415.90 0.5573
416.00 0.5578
416.10 0.5583
416.20 0.5589
416.30 0.5594
416.40 0.5599
416.50 0.5605
416.60 0.561
416.70 0.5615
416.80 0.5621
416.90 0.5626
417.00 0.5631
417.10 0.5636
417.20 0.5642
417.30 0.5647
417.40 0.5652
417.50 0.5658
417.60 0.5663
417.70 0.5668
417.80 0.5674
417.90 0.5679
418.00 0.5684
418.10 0.5689
418.20 0.5695
418.30 0.57
418.40 0.5706
418.50 0.5711
418.60 0.5716
418.70 0.5721
418.80 0.5727
418.90 0.5732
419.00 0.5738
419.10 0.5743
419.20 0.5748
419.30 0.5753
419.40 0.5759
419.50 0.5764
419.60 0.5769
419.70 0.5775
419.80 0.578
419.90 0.5785
420.00 0.5791
420.10 0.5796
420.20 0.5801
420.30 0.5807
420.40 0.5812
420.50 0.5817
420.60 0.5823
420.70 0.5828
420.80 0.5833
420.90 0.5839
421.00 0.5844
421.10 0.5849
421.20 0.5855
421.30 0.586
421.40 0.5865
421.50 0.5871
421.60 0.5876
421.70 0.5881
421.80 0.5887
421.90 0.5892
422.00 0.5897
422.10 0.5903
422.20 0.5908
422.30 0.5913
422.40 0.5919
422.50 0.5924
422.60 0.593
422.70 0.5935
422.80 0.594
422.90 0.5945
423.00 0.5951
423.10 0.5956
423.20 0.5962
423.30 0.5967
423.40 0.5972
423.50 0.5978
423.60 0.5983
423.70 0.5988
423.80 0.5994
423.90 0.5999
424.00 0.6004
424.10 0.601
424.20 0.6015
424.30 0.602
424.40 0.6026
424.50 0.6031
424.60 0.6036
424.70 0.6042
424.80 0.6047
424.90 0.6053
425.00 0.6058
425.10 0.6063
425.20 0.6069
425.30 0.6074
425.40 0.6079
425.50 0.6084
425.60 0.609
425.70 0.6095
425.80 0.6101
425.90 0.6106
426.00 0.6111
426.10 0.6117
426.20 0.6122
426.30 0.6127
426.40 0.6133
426.50 0.6138
426.60 0.6144
426.70 0.6149
426.80 0.6154
426.90 0.616
427.00 0.6165
427.10 0.6171
427.20 0.6176
427.30 0.6181
427.40 0.6187
427.50 0.6192
427.60 0.6197
427.70 0.6203
427.80 0.6208
427.90 0.6214
428.00 0.6219
428.10 0.6224
428.20 0.623
428.30 0.6235
428.40 0.624
428.50 0.6246
428.60 0.6251
428.70 0.6256
428.80 0.6262
428.90 0.6267
429.00 0.6272
429.10 0.6278
429.20 0.6283
429.30 0.6289
429.40 0.6294
429.50 0.6299
429.60 0.6305
429.70 0.631
429.80 0.6316
429.90 0.6321
430.00 0.6326
430.10 0.6332
430.20 0.6337
430.30 0.6342
430.40 0.6348
430.50 0.6353
430.60 0.6359
430.70 0.6364
430.80 0.6369
430.90 0.6375
431.00 0.638
431.10 0.6385
431.20 0.6391
431.30 0.6396
431.40 0.6402
431.50 0.6407
431.60 0.6412
431.70 0.6418
431.80 0.6423
431.90 0.6428
432.00 0.6434
432.10 0.6439
432.20 0.6445
432.30 0.645
432.40 0.6455
432.50 0.6461
432.60 0.6466
432.70 0.6472
432.80 0.6477
432.90 0.6482
433.00 0.6488
433.10 0.6493
433.20 0.6499
433.30 0.6504
433.40 0.6509
433.50 0.6515
433.60 0.652
433.70 0.6526
433.80 0.6531
433.90 0.6536
434.00 0.6542
434.10 0.6547
434.20 0.6552
434.30 0.6558
434.40 0.6563
434.50 0.6569
434.60 0.6574
434.70 0.6579
434.80 0.6585
434.90 0.659
435.00 0.6596
435.10 0.6601
435.20 0.6606
435.30 0.6612
435.40 0.6617
435.50 0.6623
435.60 0.6628
435.70 0.6633
435.80 0.6639
435.90 0.6644
436.00 0.665
436.10 0.6655
436.20 0.666
436.30 0.6666
436.40 0.6671
436.50 0.6676
436.60 0.6682
436.70 0.6687
436.80 0.6692
436.90 0.6698
437.00 0.6703
437.10 0.6709
437.20 0.6714
437.30 0.6719
437.40 0.6725
437.50 0.673
437.60 0.6736
437.70 0.6741
437.80 0.6746
437.90 0.6752
438.00 0.6757
438.10 0.6763
438.20 0.6768
438.30 0.6773
438.40 0.6779
438.50 0.6784
438.60 0.679
438.70 0.6795
438.80 0.68
438.90 0.6806
439.00 0.6811
439.10 0.6817
439.20 0.6822
439.30 0.6827
439.40 0.6833
439.50 0.6838
439.60 0.6843
439.70 0.6849
439.80 0.6854
439.90 0.686
440.00 0.6865
440.10 0.687
440.20 0.6876
440.30 0.6881
440.40 0.6887
440.50 0.6892
440.60 0.6898
440.70 0.6903
440.80 0.6908
440.90 0.6914
441.00 0.6919
441.10 0.6925
441.20 0.693
441.30 0.6935
441.40 0.694
441.50 0.6946
441.60 0.6951
441.70 0.6957
441.80 0.6962
441.90 0.6968
442.00 0.6973
442.10 0.6978
442.20 0.6984
442.30 0.6989
442.40 0.6994
442.50 0.7
442.60 0.7005
442.70 0.7011
