# Version 2.1 - nm, norm@500 to 1, cut digits, bergeron_30000_70.dat_30000
# Wavelength(nm)  Flambda(ergs/cm^s/s/nm)
300.00 4.914
300.10 4.908
300.20 4.903
300.30 4.897
300.40 4.892
300.50 4.886
300.60 4.881
300.70 4.875
300.80 4.87
300.90 4.864
301.00 4.859
301.10 4.853
301.20 4.848
301.30 4.842
301.40 4.837
301.50 4.832
301.60 4.826
301.70 4.821
301.80 4.815
301.90 4.81
302.00 4.804
302.10 4.799
302.20 4.794
302.30 4.788
302.40 4.783
302.50 4.778
302.60 4.772
302.70 4.767
302.80 4.762
302.90 4.756
303.00 4.751
303.10 4.746
303.20 4.74
303.30 4.735
303.40 4.73
303.50 4.724
303.60 4.719
303.70 4.714
303.80 4.709
303.90 4.703
304.00 4.698
304.10 4.693
304.20 4.688
304.30 4.682
304.40 4.677
304.50 4.672
304.60 4.667
304.70 4.662
304.80 4.656
304.90 4.651
305.00 4.646
305.10 4.641
305.20 4.636
305.30 4.631
305.40 4.625
305.50 4.62
305.60 4.615
305.70 4.61
305.80 4.605
305.90 4.6
306.00 4.595
306.10 4.59
306.20 4.585
306.30 4.579
306.40 4.574
306.50 4.569
306.60 4.564
306.70 4.559
306.80 4.554
306.90 4.549
307.00 4.544
307.10 4.539
307.20 4.534
307.30 4.529
307.40 4.524
307.50 4.519
307.60 4.514
307.70 4.509
307.80 4.504
307.90 4.499
308.00 4.494
308.10 4.489
308.20 4.484
308.30 4.479
308.40 4.474
308.50 4.47
308.60 4.465
308.70 4.46
308.80 4.455
308.90 4.45
309.00 4.445
309.10 4.44
309.20 4.435
309.30 4.43
309.40 4.426
309.50 4.421
309.60 4.416
309.70 4.411
309.80 4.406
309.90 4.401
310.00 4.396
310.10 4.392
310.20 4.387
310.30 4.382
310.40 4.377
310.50 4.372
310.60 4.368
310.70 4.363
310.80 4.358
310.90 4.353
311.00 4.349
311.10 4.344
311.20 4.339
311.30 4.334
311.40 4.33
311.50 4.325
311.60 4.32
311.70 4.316
311.80 4.311
311.90 4.306
312.00 4.301
312.10 4.297
312.20 4.292
312.30 4.287
312.40 4.283
312.50 4.278
312.60 4.273
312.70 4.269
312.80 4.264
312.90 4.259
313.00 4.255
313.10 4.25
313.20 4.246
313.30 4.241
313.40 4.236
313.50 4.232
313.60 4.227
313.70 4.223
313.80 4.218
313.90 4.214
314.00 4.209
314.10 4.204
314.20 4.2
314.30 4.195
314.40 4.191
314.50 4.186
314.60 4.182
314.70 4.177
314.80 4.173
314.90 4.168
315.00 4.164
315.10 4.159
315.20 4.155
315.30 4.15
315.40 4.146
315.50 4.141
315.60 4.137
315.70 4.132
315.80 4.128
315.90 4.123
316.00 4.119
316.10 4.115
316.20 4.11
316.30 4.106
316.40 4.101
316.50 4.097
316.60 4.092
316.70 4.088
316.80 4.084
316.90 4.079
317.00 4.075
317.10 4.071
317.20 4.066
317.30 4.062
317.40 4.057
317.50 4.053
317.60 4.049
317.70 4.044
317.80 4.04
317.90 4.036
318.00 4.031
318.10 4.027
318.20 4.023
318.30 4.019
318.40 4.014
318.50 4.01
318.60 4.006
318.70 4.001
318.80 3.997
318.90 3.993
319.00 3.989
319.10 3.984
319.20 3.98
319.30 3.976
319.40 3.972
319.50 3.967
319.60 3.963
319.70 3.959
319.80 3.955
319.90 3.95
320.00 3.946
320.10 3.942
320.20 3.938
320.30 3.934
320.40 3.93
320.50 3.925
320.60 3.921
320.70 3.917
320.80 3.913
320.90 3.909
321.00 3.905
321.10 3.9
321.20 3.896
321.30 3.892
321.40 3.888
321.50 3.884
321.60 3.88
321.70 3.876
321.80 3.872
321.90 3.867
322.00 3.863
322.10 3.859
322.20 3.855
322.30 3.851
322.40 3.847
322.50 3.843
322.60 3.839
322.70 3.835
322.80 3.831
322.90 3.827
323.00 3.823
323.10 3.819
323.20 3.815
323.30 3.811
323.40 3.807
323.50 3.803
323.60 3.799
323.70 3.795
323.80 3.791
323.90 3.787
324.00 3.783
324.10 3.779
324.20 3.775
324.30 3.771
324.40 3.767
324.50 3.763
324.60 3.759
324.70 3.755
324.80 3.751
324.90 3.747
325.00 3.743
325.10 3.739
325.20 3.735
325.30 3.731
325.40 3.727
325.50 3.724
325.60 3.72
325.70 3.716
325.80 3.712
325.90 3.708
326.00 3.704
326.10 3.7
326.20 3.696
326.30 3.692
326.40 3.689
326.50 3.685
326.60 3.681
326.70 3.677
326.80 3.673
326.90 3.669
327.00 3.666
327.10 3.662
327.20 3.658
327.30 3.654
327.40 3.65
327.50 3.646
327.60 3.643
327.70 3.639
327.80 3.635
327.90 3.631
328.00 3.628
328.10 3.624
328.20 3.62
328.30 3.616
328.40 3.612
328.50 3.609
328.60 3.605
328.70 3.601
328.80 3.597
328.90 3.594
329.00 3.59
329.10 3.586
329.20 3.583
329.30 3.579
329.40 3.575
329.50 3.571
329.60 3.568
329.70 3.564
329.80 3.56
329.90 3.557
330.00 3.553
330.10 3.549
330.20 3.546
330.30 3.542
330.40 3.538
330.50 3.535
330.60 3.531
330.70 3.527
330.80 3.524
330.90 3.52
331.00 3.516
331.10 3.513
331.20 3.509
331.30 3.506
331.40 3.502
331.50 3.498
331.60 3.495
331.70 3.491
331.80 3.488
331.90 3.484
332.00 3.48
332.10 3.477
332.20 3.473
332.30 3.47
332.40 3.466
332.50 3.463
332.60 3.459
332.70 3.455
332.80 3.452
332.90 3.448
333.00 3.445
333.10 3.441
333.20 3.438
333.30 3.434
333.40 3.431
333.50 3.427
333.60 3.424
333.70 3.42
333.80 3.417
333.90 3.413
334.00 3.41
334.10 3.406
334.20 3.403
334.30 3.399
334.40 3.396
334.50 3.392
334.60 3.389
334.70 3.385
334.80 3.382
334.90 3.378
335.00 3.375
335.10 3.372
335.20 3.368
335.30 3.365
335.40 3.361
335.50 3.358
335.60 3.354
335.70 3.351
335.80 3.348
335.90 3.344
336.00 3.341
336.10 3.337
336.20 3.334
336.30 3.331
336.40 3.327
336.50 3.324
336.60 3.32
336.70 3.317
336.80 3.314
336.90 3.31
337.00 3.307
337.10 3.304
337.20 3.3
337.30 3.297
337.40 3.294
337.50 3.29
337.60 3.287
337.70 3.283
337.80 3.28
337.90 3.277
338.00 3.273
338.10 3.27
338.20 3.267
338.30 3.264
338.40 3.26
338.50 3.257
338.60 3.254
338.70 3.25
338.80 3.247
338.90 3.244
339.00 3.241
339.10 3.237
339.20 3.234
339.30 3.231
339.40 3.228
339.50 3.224
339.60 3.221
339.70 3.218
339.80 3.215
339.90 3.211
340.00 3.208
340.10 3.205
340.20 3.202
340.30 3.198
340.40 3.195
340.50 3.192
340.60 3.189
340.70 3.186
340.80 3.182
340.90 3.179
341.00 3.176
341.10 3.173
341.20 3.17
341.30 3.166
341.40 3.163
341.50 3.16
341.60 3.157
341.70 3.154
341.80 3.151
341.90 3.147
342.00 3.144
342.10 3.141
342.20 3.138
342.30 3.135
342.40 3.132
342.50 3.129
342.60 3.125
342.70 3.122
342.80 3.119
342.90 3.116
343.00 3.113
343.10 3.11
343.20 3.107
343.30 3.104
343.40 3.101
343.50 3.097
343.60 3.094
343.70 3.091
343.80 3.088
343.90 3.085
344.00 3.082
344.10 3.079
344.20 3.076
344.30 3.073
344.40 3.07
344.50 3.067
344.60 3.064
344.70 3.061
344.80 3.058
344.90 3.055
345.00 3.051
345.10 3.048
345.20 3.045
345.30 3.042
345.40 3.039
345.50 3.036
345.60 3.033
345.70 3.03
345.80 3.027
345.90 3.024
346.00 3.021
346.10 3.018
346.20 3.015
346.30 3.012
346.40 3.009
346.50 3.006
346.60 3.003
346.70 3
346.80 2.997
346.90 2.995
347.00 2.992
347.10 2.989
347.20 2.986
347.30 2.983
347.40 2.98
347.50 2.977
347.60 2.974
347.70 2.971
347.80 2.968
347.90 2.965
348.00 2.962
348.10 2.959
348.20 2.956
348.30 2.953
348.40 2.951
348.50 2.948
348.60 2.945
348.70 2.942
348.80 2.939
348.90 2.936
349.00 2.933
349.10 2.93
349.20 2.927
349.30 2.924
349.40 2.922
349.50 2.919
349.60 2.916
349.70 2.913
349.80 2.91
349.90 2.907
350.00 2.904
350.10 2.902
350.20 2.899
350.30 2.896
350.40 2.893
350.50 2.89
350.60 2.887
350.70 2.885
350.80 2.882
350.90 2.879
351.00 2.876
351.10 2.873
351.20 2.871
351.30 2.868
351.40 2.865
351.50 2.862
351.60 2.859
351.70 2.856
351.80 2.854
351.90 2.851
352.00 2.848
352.10 2.845
352.20 2.843
352.30 2.84
352.40 2.837
352.50 2.834
352.60 2.832
352.70 2.829
352.80 2.826
352.90 2.823
353.00 2.821
353.10 2.818
353.20 2.815
353.30 2.812
353.40 2.81
353.50 2.807
353.60 2.804
353.70 2.801
353.80 2.799
353.90 2.796
354.00 2.793
354.10 2.79
354.20 2.788
354.30 2.785
354.40 2.782
354.50 2.78
354.60 2.777
354.70 2.774
354.80 2.772
354.90 2.769
355.00 2.766
355.10 2.764
355.20 2.761
355.30 2.758
355.40 2.756
355.50 2.753
355.60 2.75
355.70 2.748
355.80 2.745
355.90 2.742
356.00 2.74
356.10 2.737
356.20 2.734
356.30 2.732
356.40 2.729
356.50 2.726
356.60 2.724
356.70 2.721
356.80 2.719
356.90 2.716
357.00 2.713
357.10 2.711
357.20 2.708
357.30 2.706
357.40 2.703
357.50 2.7
357.60 2.698
357.70 2.695
357.80 2.693
357.90 2.69
358.00 2.687
358.10 2.685
358.20 2.682
358.30 2.68
358.40 2.677
358.50 2.674
358.60 2.672
358.70 2.669
358.80 2.667
358.90 2.664
359.00 2.662
359.10 2.659
359.20 2.657
359.30 2.654
359.40 2.651
359.50 2.649
359.60 2.646
359.70 2.644
359.80 2.641
359.90 2.639
360.00 2.636
360.10 2.634
360.20 2.631
360.30 2.629
360.40 2.626
360.50 2.624
360.60 2.621
360.70 2.619
360.80 2.616
360.90 2.614
361.00 2.611
361.10 2.609
361.20 2.606
361.30 2.604
361.40 2.601
361.50 2.599
361.60 2.596
361.70 2.594
361.80 2.591
361.90 2.589
362.00 2.586
362.10 2.584
362.20 2.582
362.30 2.579
362.40 2.577
362.50 2.574
362.60 2.572
362.70 2.569
362.80 2.567
362.90 2.564
363.00 2.562
363.10 2.56
363.20 2.557
363.30 2.555
363.40 2.552
363.50 2.55
363.60 2.547
363.70 2.545
363.80 2.543
363.90 2.54
364.00 2.538
364.10 2.535
364.20 2.533
364.30 2.531
364.40 2.528
364.50 2.526
364.60 2.523
364.70 2.521
364.80 2.519
364.90 2.516
365.00 2.514
365.10 2.512
365.20 2.509
365.30 2.507
365.40 2.504
365.50 2.502
365.60 2.5
365.70 2.497
365.80 2.495
365.90 2.493
366.00 2.49
366.10 2.488
366.20 2.485
366.30 2.482
366.40 2.48
366.50 2.477
366.60 2.474
366.70 2.472
366.80 2.469
366.90 2.466
367.00 2.464
367.10 2.461
367.20 2.458
367.30 2.456
367.40 2.453
367.50 2.451
367.60 2.448
367.70 2.445
367.80 2.443
367.90 2.44
368.00 2.437
368.10 2.435
368.20 2.432
368.30 2.43
368.40 2.427
368.50 2.425
368.60 2.422
368.70 2.42
368.80 2.417
368.90 2.415
369.00 2.412
369.10 2.41
369.20 2.407
369.30 2.405
369.40 2.402
369.50 2.4
369.60 2.397
369.70 2.395
369.80 2.392
369.90 2.39
370.00 2.387
370.10 2.385
370.20 2.382
370.30 2.38
370.40 2.378
370.50 2.375
370.60 2.373
370.70 2.371
370.80 2.368
370.90 2.366
371.00 2.364
371.10 2.361
371.20 2.359
371.30 2.357
371.40 2.354
371.50 2.352
371.60 2.35
371.70 2.348
371.80 2.345
371.90 2.343
372.00 2.341
372.10 2.339
372.20 2.337
372.30 2.335
372.40 2.333
372.50 2.332
372.60 2.33
372.70 2.328
372.80 2.326
372.90 2.324
373.00 2.323
373.10 2.321
373.20 2.319
373.30 2.317
373.40 2.315
373.50 2.314
373.60 2.312
373.70 2.31
373.80 2.308
373.90 2.307
374.00 2.305
374.10 2.303
374.20 2.302
374.30 2.3
374.40 2.299
374.50 2.298
374.60 2.296
374.70 2.295
374.80 2.293
374.90 2.292
375.00 2.29
375.10 2.289
375.20 2.288
375.30 2.286
375.40 2.285
375.50 2.283
375.60 2.282
375.70 2.28
375.80 2.279
375.90 2.278
376.00 2.276
376.10 2.272
376.20 2.269
376.30 2.265
376.40 2.261
376.50 2.258
376.60 2.254
376.70 2.25
376.80 2.247
376.90 2.243
377.00 2.239
377.10 2.241
377.20 2.242
377.30 2.244
377.40 2.246
377.50 2.247
377.60 2.249
377.70 2.25
377.80 2.252
377.90 2.254
378.00 2.255
378.10 2.251
378.20 2.248
378.30 2.244
378.40 2.24
378.50 2.237
378.60 2.233
378.70 2.229
378.80 2.226
378.90 2.222
379.00 2.219
379.10 2.213
379.20 2.208
379.30 2.203
379.40 2.197
379.50 2.192
379.60 2.187
379.70 2.181
379.80 2.176
379.90 2.171
380.00 2.165
380.10 2.172
380.20 2.178
380.30 2.185
380.40 2.191
380.50 2.198
380.60 2.204
380.70 2.211
380.80 2.217
380.90 2.224
381.00 2.23
381.10 2.231
381.20 2.231
381.30 2.231
381.40 2.232
381.50 2.232
381.60 2.229
381.70 2.226
381.80 2.221
381.90 2.215
382.00 2.208
382.10 2.2
382.20 2.19
382.30 2.175
382.40 2.159
382.50 2.143
382.60 2.128
382.70 2.112
382.80 2.096
382.90 2.081
383.00 2.065
383.10 2.049
383.20 2.034
383.30 2.014
383.40 1.994
383.50 1.978
383.60 1.981
383.70 1.997
383.80 2.015
383.90 2.034
384.00 2.053
384.10 2.071
384.20 2.088
384.30 2.105
384.40 2.121
384.50 2.135
384.60 2.149
384.70 2.161
384.80 2.173
384.90 2.183
385.00 2.192
385.10 2.2
385.20 2.208
385.30 2.214
385.40 2.219
385.50 2.223
385.60 2.227
385.70 2.229
385.80 2.23
385.90 2.231
386.00 2.23
386.10 2.228
386.20 2.226
386.30 2.222
386.40 2.217
386.50 2.211
386.60 2.204
386.70 2.196
386.80 2.187
386.90 2.177
387.00 2.165
387.10 2.153
387.20 2.138
387.30 2.123
387.40 2.107
387.50 2.089
387.60 2.069
387.70 2.049
387.80 2.026
387.90 2.003
388.00 1.978
388.10 1.95
388.20 1.922
388.30 1.892
388.40 1.861
388.50 1.828
388.60 1.795
388.70 1.762
388.80 1.736
388.90 1.716
389.00 1.732
389.10 1.755
389.20 1.785
389.30 1.816
389.40 1.846
389.50 1.876
389.60 1.903
389.70 1.929
389.80 1.955
389.90 1.978
390.00 2
390.10 2.021
390.20 2.04
390.30 2.058
390.40 2.075
390.50 2.091
390.60 2.105
390.70 2.119
390.80 2.132
390.90 2.143
391.00 2.154
391.10 2.164
391.20 2.173
391.30 2.181
391.40 2.188
391.50 2.195
391.60 2.201
391.70 2.206
391.80 2.211
391.90 2.215
392.00 2.218
392.10 2.221
392.20 2.223
392.30 2.225
392.40 2.226
392.50 2.226
392.60 2.226
392.70 2.226
392.80 2.225
392.90 2.223
393.00 2.221
393.10 2.218
393.20 2.215
393.30 2.211
393.40 2.206
393.50 2.201
393.60 2.196
393.70 2.19
393.80 2.183
393.90 2.175
394.00 2.167
394.10 2.158
394.20 2.149
394.30 2.138
394.40 2.127
394.50 2.115
394.60 2.103
394.70 2.089
394.80 2.074
394.90 2.059
395.00 2.042
395.10 2.024
395.20 2.006
395.30 1.985
395.40 1.964
395.50 1.942
395.60 1.918
395.70 1.892
395.80 1.866
395.90 1.837
396.00 1.807
396.10 1.776
396.20 1.742
396.30 1.707
396.40 1.671
396.50 1.631
396.60 1.589
396.70 1.547
396.80 1.501
396.90 1.455
397.00 1.409
397.10 1.449
397.20 1.49
397.30 1.533
397.40 1.574
397.50 1.613
397.60 1.651
397.70 1.685
397.80 1.717
397.90 1.748
398.00 1.777
398.10 1.804
398.20 1.83
398.30 1.853
398.40 1.875
398.50 1.897
398.60 1.916
398.70 1.934
398.80 1.952
398.90 1.968
399.00 1.983
399.10 1.997
399.20 2.01
399.30 2.022
399.40 2.033
399.50 2.043
399.60 2.053
399.70 2.062
399.80 2.07
399.90 2.078
400.00 2.085
400.10 2.091
400.20 2.097
400.30 2.103
400.40 2.107
400.50 2.112
400.60 2.116
400.70 2.12
400.80 2.123
400.90 2.126
401.00 2.129
401.10 2.131
401.20 2.134
401.30 2.135
401.40 2.137
401.50 2.138
401.60 2.139
401.70 2.14
401.80 2.141
401.90 2.141
402.00 2.142
402.10 2.142
402.20 2.142
402.30 2.142
402.40 2.141
402.50 2.141
402.60 2.14
402.70 2.14
402.80 2.139
402.90 2.138
403.00 2.137
403.10 2.135
403.20 2.134
403.30 2.132
403.40 2.131
403.50 2.129
403.60 2.127
403.70 2.125
403.80 2.123
403.90 2.121
404.00 2.119
404.10 2.116
404.20 2.114
404.30 2.111
404.40 2.108
404.50 2.105
404.60 2.102
404.70 2.099
404.80 2.096
404.90 2.092
405.00 2.089
405.10 2.085
405.20 2.081
405.30 2.077
405.40 2.072
405.50 2.068
405.60 2.063
405.70 2.058
405.80 2.053
405.90 2.047
406.00 2.042
406.10 2.036
406.20 2.029
406.30 2.023
406.40 2.016
406.50 2.009
406.60 2.001
406.70 1.993
406.80 1.985
406.90 1.976
407.00 1.966
407.10 1.957
407.20 1.946
407.30 1.935
407.40 1.924
407.50 1.912
407.60 1.899
407.70 1.886
407.80 1.872
407.90 1.857
408.00 1.841
408.10 1.825
408.20 1.807
408.30 1.788
408.40 1.769
408.50 1.748
408.60 1.727
408.70 1.704
408.80 1.679
408.90 1.654
409.00 1.627
409.10 1.598
409.20 1.568
409.30 1.537
409.40 1.502
409.50 1.466
409.60 1.428
409.70 1.387
409.80 1.342
409.90 1.295
410.00 1.243
410.10 1.201
410.20 1.171
410.30 1.218
410.40 1.266
410.50 1.315
410.60 1.358
410.70 1.398
410.80 1.436
410.90 1.47
411.00 1.502
411.10 1.533
411.20 1.56
411.30 1.587
411.40 1.612
411.50 1.635
411.60 1.656
411.70 1.677
411.80 1.696
411.90 1.714
412.00 1.73
412.10 1.746
412.20 1.76
412.30 1.774
412.40 1.787
412.50 1.798
412.60 1.81
412.70 1.82
412.80 1.829
412.90 1.838
413.00 1.846
413.10 1.854
413.20 1.861
413.30 1.868
413.40 1.874
413.50 1.879
413.60 1.884
413.70 1.889
413.80 1.894
413.90 1.897
414.00 1.901
414.10 1.904
414.20 1.907
414.30 1.91
414.40 1.913
414.50 1.915
414.60 1.917
414.70 1.919
414.80 1.92
414.90 1.922
415.00 1.923
415.10 1.924
415.20 1.925
415.30 1.926
415.40 1.926
415.50 1.927
415.60 1.927
415.70 1.928
415.80 1.928
415.90 1.928
416.00 1.928
416.10 1.928
416.20 1.927
416.30 1.927
416.40 1.927
416.50 1.926
416.60 1.926
416.70 1.925
416.80 1.925
416.90 1.924
417.00 1.923
417.10 1.923
417.20 1.922
417.30 1.921
417.40 1.92
417.50 1.919
417.60 1.918
417.70 1.917
417.80 1.916
417.90 1.915
418.00 1.914
418.10 1.913
418.20 1.912
418.30 1.911
418.40 1.91
418.50 1.909
418.60 1.907
418.70 1.906
418.80 1.905
418.90 1.904
419.00 1.902
419.10 1.901
419.20 1.9
419.30 1.898
419.40 1.897
419.50 1.896
419.60 1.894
419.70 1.893
419.80 1.892
419.90 1.89
420.00 1.889
420.10 1.887
420.20 1.886
420.30 1.884
420.40 1.883
420.50 1.881
420.60 1.88
420.70 1.878
420.80 1.877
420.90 1.875
421.00 1.874
421.10 1.872
421.20 1.871
421.30 1.869
421.40 1.868
421.50 1.866
421.60 1.865
421.70 1.863
421.80 1.861
421.90 1.86
422.00 1.858
422.10 1.857
422.20 1.855
422.30 1.853
422.40 1.852
422.50 1.85
422.60 1.848
422.70 1.847
422.80 1.845
422.90 1.843
423.00 1.842
423.10 1.84
423.20 1.838
423.30 1.837
423.40 1.835
423.50 1.833
423.60 1.832
423.70 1.83
423.80 1.828
423.90 1.826
424.00 1.825
424.10 1.823
424.20 1.821
424.30 1.819
424.40 1.817
424.50 1.816
424.60 1.814
424.70 1.812
424.80 1.81
424.90 1.808
425.00 1.806
425.10 1.805
425.20 1.803
425.30 1.801
425.40 1.799
425.50 1.797
425.60 1.795
425.70 1.793
425.80 1.791
425.90 1.789
426.00 1.787
426.10 1.785
426.20 1.783
426.30 1.781
426.40 1.778
426.50 1.776
426.60 1.774
426.70 1.772
426.80 1.77
426.90 1.767
427.00 1.765
427.10 1.763
427.20 1.76
427.30 1.758
427.40 1.755
427.50 1.753
427.60 1.75
427.70 1.748
427.80 1.745
427.90 1.742
428.00 1.74
428.10 1.737
428.20 1.734
428.30 1.731
428.40 1.728
428.50 1.725
428.60 1.722
428.70 1.718
428.80 1.715
428.90 1.711
429.00 1.708
429.10 1.704
429.20 1.7
429.30 1.696
429.40 1.692
429.50 1.688
429.60 1.684
429.70 1.679
429.80 1.674
429.90 1.669
430.00 1.664
430.10 1.659
430.20 1.653
430.30 1.647
430.40 1.641
430.50 1.635
430.60 1.628
430.70 1.621
430.80 1.613
430.90 1.606
431.00 1.598
431.10 1.589
431.20 1.58
431.30 1.571
431.40 1.561
431.50 1.551
431.60 1.539
431.70 1.528
431.80 1.516
431.90 1.503
432.00 1.489
432.10 1.475
432.20 1.46
432.30 1.443
432.40 1.427
432.50 1.409
432.60 1.39
432.70 1.37
432.80 1.348
432.90 1.326
433.00 1.302
433.10 1.277
433.20 1.25
433.30 1.222
433.40 1.191
433.50 1.157
433.60 1.122
433.70 1.082
433.80 1.038
433.90 0.9909
434.00 0.9365
434.10 0.9371
434.20 0.9926
434.30 1.038
434.40 1.079
434.50 1.118
434.60 1.151
434.70 1.182
434.80 1.211
434.90 1.237
435.00 1.261
435.10 1.285
435.20 1.306
435.30 1.326
435.40 1.345
435.50 1.362
435.60 1.378
435.70 1.394
435.80 1.408
435.90 1.421
436.00 1.434
436.10 1.445
436.20 1.456
436.30 1.466
436.40 1.475
436.50 1.484
436.60 1.492
436.70 1.5
436.80 1.506
436.90 1.513
437.00 1.519
437.10 1.524
437.20 1.53
437.30 1.534
437.40 1.539
437.50 1.543
437.60 1.546
437.70 1.55
437.80 1.553
437.90 1.556
438.00 1.558
438.10 1.561
438.20 1.563
438.30 1.565
438.40 1.567
438.50 1.568
438.60 1.57
438.70 1.571
438.80 1.572
438.90 1.573
439.00 1.574
439.10 1.575
439.20 1.575
439.30 1.576
439.40 1.576
439.50 1.576
439.60 1.577
439.70 1.577
439.80 1.577
439.90 1.577
440.00 1.577
440.10 1.577
440.20 1.577
440.30 1.576
440.40 1.576
440.50 1.576
440.60 1.575
440.70 1.575
440.80 1.574
440.90 1.574
441.00 1.573
441.10 1.573
441.20 1.572
441.30 1.572
441.40 1.571
441.50 1.57
441.60 1.57
441.70 1.569
441.80 1.568
441.90 1.567
442.00 1.566
442.10 1.566
442.20 1.565
442.30 1.564
442.40 1.563
442.50 1.562
442.60 1.561
442.70 1.56
442.80 1.559
442.90 1.558
443.00 1.557
443.10 1.556
443.20 1.556
443.30 1.555
443.40 1.554
443.50 1.553
443.60 1.551
443.70 1.55
443.80 1.549
443.90 1.548
444.00 1.547
444.10 1.546
444.20 1.545
444.30 1.544
444.40 1.543
444.50 1.542
444.60 1.541
444.70 1.54
444.80 1.539
444.90 1.538
445.00 1.536
445.10 1.535
445.20 1.534
445.30 1.533
445.40 1.532
445.50 1.531
445.60 1.53
445.70 1.529
445.80 1.527
445.90 1.526
446.00 1.525
446.10 1.524
446.20 1.523
446.30 1.522
446.40 1.521
446.50 1.519
446.60 1.518
446.70 1.517
446.80 1.516
446.90 1.515
447.00 1.514
447.10 1.512
447.20 1.511
447.30 1.51
447.40 1.509
447.50 1.508
447.60 1.507
447.70 1.505
447.80 1.504
447.90 1.503
448.00 1.502
448.10 1.501
448.20 1.5
448.30 1.498
448.40 1.497
448.50 1.496
448.60 1.495
448.70 1.494
448.80 1.493
448.90 1.491
449.00 1.49
449.10 1.489
449.20 1.488
449.30 1.487
449.40 1.486
449.50 1.484
449.60 1.483
449.70 1.482
449.80 1.481
449.90 1.48
450.00 1.478
450.10 1.477
450.20 1.476
450.30 1.475
450.40 1.474
450.50 1.473
450.60 1.471
450.70 1.47
450.80 1.469
450.90 1.468
451.00 1.467
451.10 1.466
451.20 1.464
451.30 1.463
451.40 1.462
451.50 1.461
451.60 1.46
451.70 1.459
451.80 1.457
451.90 1.456
452.00 1.455
452.10 1.454
452.20 1.453
452.30 1.452
452.40 1.45
452.50 1.449
452.60 1.448
452.70 1.447
452.80 1.446
452.90 1.445
453.00 1.443
453.10 1.442
453.20 1.441
453.30 1.44
453.40 1.439
453.50 1.438
453.60 1.436
453.70 1.435
453.80 1.434
453.90 1.433
454.00 1.432
454.10 1.431
