# Version 2.1 - nm, norm@500 to 1, cut digits, bergeron_15500_95.dat_15500
# Wavelength(nm)  Flambda(ergs/cm^s/s/nm)
300.00 2.908
300.10 2.906
300.20 2.904
300.30 2.901
300.40 2.899
300.50 2.897
300.60 2.895
300.70 2.892
300.80 2.89
300.90 2.888
301.00 2.885
301.10 2.883
301.20 2.881
301.30 2.878
301.40 2.876
301.50 2.874
301.60 2.872
301.70 2.869
301.80 2.867
301.90 2.865
302.00 2.862
302.10 2.86
302.20 2.858
302.30 2.856
302.40 2.853
302.50 2.851
302.60 2.849
302.70 2.847
302.80 2.844
302.90 2.842
303.00 2.84
303.10 2.837
303.20 2.835
303.30 2.833
303.40 2.831
303.50 2.828
303.60 2.826
303.70 2.824
303.80 2.822
303.90 2.819
304.00 2.817
304.10 2.815
304.20 2.813
304.30 2.811
304.40 2.808
304.50 2.806
304.60 2.804
304.70 2.802
304.80 2.799
304.90 2.797
305.00 2.795
305.10 2.793
305.20 2.791
305.30 2.788
305.40 2.786
305.50 2.784
305.60 2.782
305.70 2.78
305.80 2.778
305.90 2.775
306.00 2.773
306.10 2.771
306.20 2.769
306.30 2.767
306.40 2.764
306.50 2.762
306.60 2.76
306.70 2.758
306.80 2.756
306.90 2.754
307.00 2.751
307.10 2.749
307.20 2.747
307.30 2.745
307.40 2.743
307.50 2.741
307.60 2.738
307.70 2.736
307.80 2.734
307.90 2.732
308.00 2.73
308.10 2.728
308.20 2.725
308.30 2.723
308.40 2.721
308.50 2.719
308.60 2.717
308.70 2.715
308.80 2.713
308.90 2.711
309.00 2.708
309.10 2.706
309.20 2.704
309.30 2.702
309.40 2.7
309.50 2.698
309.60 2.696
309.70 2.694
309.80 2.692
309.90 2.689
310.00 2.687
310.10 2.685
310.20 2.683
310.30 2.681
310.40 2.679
310.50 2.677
310.60 2.675
310.70 2.673
310.80 2.67
310.90 2.668
311.00 2.666
311.10 2.664
311.20 2.662
311.30 2.66
311.40 2.658
311.50 2.656
311.60 2.654
311.70 2.652
311.80 2.65
311.90 2.648
312.00 2.646
312.10 2.643
312.20 2.641
312.30 2.639
312.40 2.637
312.50 2.635
312.60 2.633
312.70 2.631
312.80 2.629
312.90 2.627
313.00 2.625
313.10 2.623
313.20 2.621
313.30 2.619
313.40 2.617
313.50 2.615
313.60 2.613
313.70 2.611
313.80 2.609
313.90 2.607
314.00 2.605
314.10 2.603
314.20 2.601
314.30 2.599
314.40 2.597
314.50 2.595
314.60 2.593
314.70 2.591
314.80 2.588
314.90 2.586
315.00 2.584
315.10 2.582
315.20 2.58
315.30 2.578
315.40 2.576
315.50 2.574
315.60 2.572
315.70 2.57
315.80 2.568
315.90 2.566
316.00 2.564
316.10 2.562
316.20 2.561
316.30 2.559
316.40 2.557
316.50 2.555
316.60 2.553
316.70 2.551
316.80 2.549
316.90 2.547
317.00 2.545
317.10 2.543
317.20 2.541
317.30 2.539
317.40 2.537
317.50 2.535
317.60 2.533
317.70 2.531
317.80 2.529
317.90 2.527
318.00 2.525
318.10 2.523
318.20 2.521
318.30 2.519
318.40 2.517
318.50 2.515
318.60 2.513
318.70 2.512
318.80 2.51
318.90 2.508
319.00 2.506
319.10 2.504
319.20 2.502
319.30 2.5
319.40 2.498
319.50 2.496
319.60 2.494
319.70 2.492
319.80 2.49
319.90 2.488
320.00 2.487
320.10 2.485
320.20 2.483
320.30 2.481
320.40 2.479
320.50 2.477
320.60 2.475
320.70 2.473
320.80 2.471
320.90 2.469
321.00 2.467
321.10 2.466
321.20 2.464
321.30 2.462
321.40 2.46
321.50 2.458
321.60 2.456
321.70 2.454
321.80 2.452
321.90 2.451
322.00 2.449
322.10 2.447
322.20 2.445
322.30 2.443
322.40 2.441
322.50 2.439
322.60 2.437
322.70 2.436
322.80 2.434
322.90 2.432
323.00 2.43
323.10 2.428
323.20 2.426
323.30 2.424
323.40 2.423
323.50 2.421
323.60 2.419
323.70 2.417
323.80 2.415
323.90 2.413
324.00 2.412
324.10 2.41
324.20 2.408
324.30 2.406
324.40 2.404
324.50 2.402
324.60 2.401
324.70 2.399
324.80 2.397
324.90 2.395
325.00 2.393
325.10 2.391
325.20 2.39
325.30 2.388
325.40 2.386
325.50 2.384
325.60 2.382
325.70 2.381
325.80 2.379
325.90 2.377
326.00 2.375
326.10 2.373
326.20 2.372
326.30 2.37
326.40 2.368
326.50 2.366
326.60 2.364
326.70 2.363
326.80 2.361
326.90 2.359
327.00 2.357
327.10 2.355
327.20 2.354
327.30 2.352
327.40 2.35
327.50 2.348
327.60 2.346
327.70 2.345
327.80 2.343
327.90 2.341
328.00 2.339
328.10 2.338
328.20 2.336
328.30 2.334
328.40 2.332
328.50 2.331
328.60 2.329
328.70 2.327
328.80 2.325
328.90 2.324
329.00 2.322
329.10 2.32
329.20 2.318
329.30 2.317
329.40 2.315
329.50 2.313
329.60 2.311
329.70 2.31
329.80 2.308
329.90 2.306
330.00 2.304
330.10 2.303
330.20 2.301
330.30 2.299
330.40 2.297
330.50 2.296
330.60 2.294
330.70 2.292
330.80 2.291
330.90 2.289
331.00 2.287
331.10 2.285
331.20 2.284
331.30 2.282
331.40 2.28
331.50 2.278
331.60 2.277
331.70 2.275
331.80 2.273
331.90 2.272
332.00 2.27
332.10 2.268
332.20 2.266
332.30 2.265
332.40 2.263
332.50 2.261
332.60 2.26
332.70 2.258
332.80 2.256
332.90 2.255
333.00 2.253
333.10 2.251
333.20 2.25
333.30 2.248
333.40 2.246
333.50 2.244
333.60 2.243
333.70 2.241
333.80 2.239
333.90 2.238
334.00 2.236
334.10 2.234
334.20 2.233
334.30 2.231
334.40 2.229
334.50 2.228
334.60 2.226
334.70 2.224
334.80 2.223
334.90 2.221
335.00 2.219
335.10 2.218
335.20 2.216
335.30 2.214
335.40 2.213
335.50 2.211
335.60 2.209
335.70 2.208
335.80 2.206
335.90 2.205
336.00 2.203
336.10 2.201
336.20 2.2
336.30 2.198
336.40 2.196
336.50 2.195
336.60 2.193
336.70 2.191
336.80 2.19
336.90 2.188
337.00 2.187
337.10 2.185
337.20 2.183
337.30 2.182
337.40 2.18
337.50 2.178
337.60 2.177
337.70 2.175
337.80 2.174
337.90 2.172
338.00 2.17
338.10 2.169
338.20 2.167
338.30 2.165
338.40 2.164
338.50 2.162
338.60 2.161
338.70 2.159
338.80 2.157
338.90 2.156
339.00 2.154
339.10 2.153
339.20 2.151
339.30 2.149
339.40 2.148
339.50 2.146
339.60 2.145
339.70 2.143
339.80 2.142
339.90 2.14
340.00 2.138
340.10 2.137
340.20 2.135
340.30 2.134
340.40 2.132
340.50 2.13
340.60 2.129
340.70 2.127
340.80 2.126
340.90 2.124
341.00 2.123
341.10 2.121
341.20 2.119
341.30 2.118
341.40 2.116
341.50 2.115
341.60 2.113
341.70 2.112
341.80 2.11
341.90 2.108
342.00 2.107
342.10 2.105
342.20 2.104
342.30 2.102
342.40 2.101
342.50 2.099
342.60 2.098
342.70 2.096
342.80 2.094
342.90 2.093
343.00 2.091
343.10 2.09
343.20 2.088
343.30 2.087
343.40 2.085
343.50 2.084
343.60 2.082
343.70 2.081
343.80 2.079
343.90 2.078
344.00 2.076
344.10 2.075
344.20 2.073
344.30 2.071
344.40 2.07
344.50 2.068
344.60 2.067
344.70 2.065
344.80 2.064
344.90 2.062
345.00 2.061
345.10 2.059
345.20 2.058
345.30 2.056
345.40 2.055
345.50 2.053
345.60 2.052
345.70 2.05
345.80 2.049
345.90 2.047
346.00 2.046
346.10 2.044
346.20 2.043
346.30 2.041
346.40 2.04
346.50 2.038
346.60 2.037
346.70 2.035
346.80 2.034
346.90 2.032
347.00 2.031
347.10 2.029
347.20 2.028
347.30 2.026
347.40 2.025
347.50 2.023
347.60 2.022
347.70 2.02
347.80 2.019
347.90 2.018
348.00 2.016
348.10 2.015
348.20 2.013
348.30 2.012
348.40 2.01
348.50 2.009
348.60 2.007
348.70 2.006
348.80 2.004
348.90 2.003
349.00 2.001
349.10 2
349.20 1.998
349.30 1.997
349.40 1.996
349.50 1.994
349.60 1.993
349.70 1.991
349.80 1.99
349.90 1.988
350.00 1.987
350.10 1.985
350.20 1.984
350.30 1.982
350.40 1.981
350.50 1.98
350.60 1.978
350.70 1.977
350.80 1.975
350.90 1.974
351.00 1.972
351.10 1.971
351.20 1.97
351.30 1.968
351.40 1.967
351.50 1.965
351.60 1.964
351.70 1.962
351.80 1.961
351.90 1.96
352.00 1.958
352.10 1.957
352.20 1.955
352.30 1.954
352.40 1.953
352.50 1.951
352.60 1.95
352.70 1.948
352.80 1.947
352.90 1.945
353.00 1.944
353.10 1.943
353.20 1.941
353.30 1.94
353.40 1.938
353.50 1.937
353.60 1.936
353.70 1.934
353.80 1.933
353.90 1.931
354.00 1.93
354.10 1.929
354.20 1.927
354.30 1.926
354.40 1.924
354.50 1.923
354.60 1.922
354.70 1.92
354.80 1.919
354.90 1.917
355.00 1.916
355.10 1.915
355.20 1.913
355.30 1.912
355.40 1.911
355.50 1.909
355.60 1.908
355.70 1.906
355.80 1.905
355.90 1.904
356.00 1.902
356.10 1.901
356.20 1.9
356.30 1.898
356.40 1.897
356.50 1.895
356.60 1.894
356.70 1.893
356.80 1.891
356.90 1.89
357.00 1.889
357.10 1.887
357.20 1.886
357.30 1.885
357.40 1.883
357.50 1.882
357.60 1.881
357.70 1.879
357.80 1.878
357.90 1.876
358.00 1.875
358.10 1.874
358.20 1.872
358.30 1.871
358.40 1.87
358.50 1.868
358.60 1.867
358.70 1.866
358.80 1.864
358.90 1.863
359.00 1.862
359.10 1.86
359.20 1.859
359.30 1.858
359.40 1.856
359.50 1.855
359.60 1.854
359.70 1.852
359.80 1.851
359.90 1.85
360.00 1.849
360.10 1.847
360.20 1.846
360.30 1.845
360.40 1.843
360.50 1.842
360.60 1.841
360.70 1.839
360.80 1.838
360.90 1.837
361.00 1.835
361.10 1.834
361.20 1.833
361.30 1.831
361.40 1.83
361.50 1.829
361.60 1.827
361.70 1.826
361.80 1.825
361.90 1.824
362.00 1.822
362.10 1.821
362.20 1.82
362.30 1.818
362.40 1.817
362.50 1.816
362.60 1.814
362.70 1.813
362.80 1.812
362.90 1.811
363.00 1.809
363.10 1.808
363.20 1.806
363.30 1.805
363.40 1.803
363.50 1.802
363.60 1.8
363.70 1.799
363.80 1.797
363.90 1.796
364.00 1.794
364.10 1.793
364.20 1.791
364.30 1.79
364.40 1.788
364.50 1.787
364.60 1.785
364.70 1.784
364.80 1.782
364.90 1.78
365.00 1.779
365.10 1.777
365.20 1.776
365.30 1.774
365.40 1.773
365.50 1.771
365.60 1.77
365.70 1.768
365.80 1.767
365.90 1.765
366.00 1.763
366.10 1.762
366.20 1.761
366.30 1.759
366.40 1.758
366.50 1.757
366.60 1.755
366.70 1.754
366.80 1.753
366.90 1.752
367.00 1.75
367.10 1.749
367.20 1.748
367.30 1.746
367.40 1.745
367.50 1.744
367.60 1.742
367.70 1.741
367.80 1.74
367.90 1.738
368.00 1.737
368.10 1.736
368.20 1.735
368.30 1.733
368.40 1.732
368.50 1.731
368.60 1.729
368.70 1.728
368.80 1.727
368.90 1.725
369.00 1.724
369.10 1.723
369.20 1.721
369.30 1.72
369.40 1.719
369.50 1.717
369.60 1.716
369.70 1.715
369.80 1.714
369.90 1.712
370.00 1.711
370.10 1.71
370.20 1.708
370.30 1.707
370.40 1.706
370.50 1.705
370.60 1.703
370.70 1.702
370.80 1.701
370.90 1.699
371.00 1.698
371.10 1.697
371.20 1.696
371.30 1.694
371.40 1.693
371.50 1.692
371.60 1.69
371.70 1.689
371.80 1.688
371.90 1.687
372.00 1.685
372.10 1.684
372.20 1.683
372.30 1.682
372.40 1.681
372.50 1.679
372.60 1.678
372.70 1.677
372.80 1.676
372.90 1.675
373.00 1.673
373.10 1.672
373.20 1.671
373.30 1.67
373.40 1.669
373.50 1.667
373.60 1.666
373.70 1.665
373.80 1.664
373.90 1.663
374.00 1.661
374.10 1.66
374.20 1.659
374.30 1.658
374.40 1.657
374.50 1.656
374.60 1.655
374.70 1.654
374.80 1.652
374.90 1.651
375.00 1.65
375.10 1.649
375.20 1.648
375.30 1.647
375.40 1.646
375.50 1.645
375.60 1.644
375.70 1.642
375.80 1.641
375.90 1.64
376.00 1.639
376.10 1.638
376.20 1.637
376.30 1.636
376.40 1.635
376.50 1.634
376.60 1.633
376.70 1.632
376.80 1.631
376.90 1.63
377.00 1.629
377.10 1.628
377.20 1.627
377.30 1.626
377.40 1.624
377.50 1.623
377.60 1.622
377.70 1.621
377.80 1.62
377.90 1.619
378.00 1.618
378.10 1.617
378.20 1.615
378.30 1.614
378.40 1.613
378.50 1.611
378.60 1.61
378.70 1.609
378.80 1.607
378.90 1.606
379.00 1.605
379.10 1.603
379.20 1.602
379.30 1.601
379.40 1.6
379.50 1.599
379.60 1.598
379.70 1.597
379.80 1.596
379.90 1.595
380.00 1.594
380.10 1.593
380.20 1.593
380.30 1.592
380.40 1.592
380.50 1.591
380.60 1.591
380.70 1.591
380.80 1.59
380.90 1.59
381.00 1.589
381.10 1.589
381.20 1.588
381.30 1.587
381.40 1.587
381.50 1.586
381.60 1.585
381.70 1.584
381.80 1.583
381.90 1.582
382.00 1.581
382.10 1.579
382.20 1.578
382.30 1.576
382.40 1.575
382.50 1.573
382.60 1.571
382.70 1.569
382.80 1.567
382.90 1.566
383.00 1.564
383.10 1.562
383.20 1.56
383.30 1.559
383.40 1.558
383.50 1.556
383.60 1.556
383.70 1.556
383.80 1.557
383.90 1.557
384.00 1.558
384.10 1.559
384.20 1.56
384.30 1.561
384.40 1.562
384.50 1.562
384.60 1.563
384.70 1.564
384.80 1.564
384.90 1.564
385.00 1.565
385.10 1.564
385.20 1.564
385.30 1.564
385.40 1.564
385.50 1.563
385.60 1.563
385.70 1.562
385.80 1.561
385.90 1.56
386.00 1.559
386.10 1.558
386.20 1.557
386.30 1.556
386.40 1.555
386.50 1.553
386.60 1.551
386.70 1.55
386.80 1.548
386.90 1.546
387.00 1.544
387.10 1.542
387.20 1.54
387.30 1.537
387.40 1.535
387.50 1.532
387.60 1.53
387.70 1.527
387.80 1.524
387.90 1.521
388.00 1.517
388.10 1.514
388.20 1.51
388.30 1.506
388.40 1.501
388.50 1.497
388.60 1.494
388.70 1.492
388.80 1.49
388.90 1.489
389.00 1.489
389.10 1.49
389.20 1.492
389.30 1.495
389.40 1.498
389.50 1.502
389.60 1.506
389.70 1.509
389.80 1.512
389.90 1.515
390.00 1.518
390.10 1.52
390.20 1.522
390.30 1.525
390.40 1.527
390.50 1.528
390.60 1.53
390.70 1.532
390.80 1.533
390.90 1.534
391.00 1.535
391.10 1.537
391.20 1.537
391.30 1.538
391.40 1.539
391.50 1.54
391.60 1.54
391.70 1.54
391.80 1.54
391.90 1.54
392.00 1.54
392.10 1.54
392.20 1.539
392.30 1.538
392.40 1.538
392.50 1.537
392.60 1.535
392.70 1.534
392.80 1.533
392.90 1.531
393.00 1.529
393.10 1.527
393.20 1.525
393.30 1.522
393.40 1.52
393.50 1.517
393.60 1.514
393.70 1.511
393.80 1.508
393.90 1.504
394.00 1.501
394.10 1.497
394.20 1.493
394.30 1.489
394.40 1.484
394.50 1.479
394.60 1.475
394.70 1.47
394.80 1.464
394.90 1.459
395.00 1.453
395.10 1.448
395.20 1.442
395.30 1.435
395.40 1.429
395.50 1.423
395.60 1.416
395.70 1.409
395.80 1.401
395.90 1.394
396.00 1.386
396.10 1.379
396.20 1.371
396.30 1.362
396.40 1.352
396.50 1.342
396.60 1.33
396.70 1.319
396.80 1.31
396.90 1.303
397.00 1.296
397.10 1.302
397.20 1.308
397.30 1.316
397.40 1.327
397.50 1.338
397.60 1.348
397.70 1.357
397.80 1.366
397.90 1.373
398.00 1.381
398.10 1.388
398.20 1.395
398.30 1.402
398.40 1.408
398.50 1.415
398.60 1.421
398.70 1.427
398.80 1.433
398.90 1.439
399.00 1.445
399.10 1.45
399.20 1.455
399.30 1.46
399.40 1.465
399.50 1.47
399.60 1.474
399.70 1.479
399.80 1.483
399.90 1.487
400.00 1.491
400.10 1.494
400.20 1.498
400.30 1.501
400.40 1.504
400.50 1.507
400.60 1.51
400.70 1.512
400.80 1.515
400.90 1.517
401.00 1.519
401.10 1.521
401.20 1.523
401.30 1.525
401.40 1.526
401.50 1.527
401.60 1.528
401.70 1.529
401.80 1.53
401.90 1.531
402.00 1.531
402.10 1.532
402.20 1.532
402.30 1.532
402.40 1.532
402.50 1.532
402.60 1.531
402.70 1.531
402.80 1.53
402.90 1.529
403.00 1.528
403.10 1.527
403.20 1.526
403.30 1.525
403.40 1.523
403.50 1.521
403.60 1.519
403.70 1.517
403.80 1.515
403.90 1.512
404.00 1.51
404.10 1.507
404.20 1.504
404.30 1.501
404.40 1.498
404.50 1.495
404.60 1.491
404.70 1.488
404.80 1.484
404.90 1.48
405.00 1.476
405.10 1.472
405.20 1.467
405.30 1.463
405.40 1.458
405.50 1.453
405.60 1.447
405.70 1.442
405.80 1.436
405.90 1.43
406.00 1.424
406.10 1.418
406.20 1.412
406.30 1.405
406.40 1.398
406.50 1.391
406.60 1.384
406.70 1.377
406.80 1.369
406.90 1.361
407.00 1.353
407.10 1.345
407.20 1.337
407.30 1.328
407.40 1.319
407.50 1.309
407.60 1.3
407.70 1.29
407.80 1.28
407.90 1.27
408.00 1.259
408.10 1.248
408.20 1.237
408.30 1.226
408.40 1.215
408.50 1.203
408.60 1.191
408.70 1.179
408.80 1.166
408.90 1.153
409.00 1.14
409.10 1.127
409.20 1.114
409.30 1.102
409.40 1.089
409.50 1.075
409.60 1.061
409.70 1.046
409.80 1.031
409.90 1.016
410.00 1.005
410.10 0.9983
410.20 0.996
410.30 1
410.40 1.009
410.50 1.021
410.60 1.036
410.70 1.05
410.80 1.063
410.90 1.076
411.00 1.088
411.10 1.1
411.20 1.112
411.30 1.124
411.40 1.136
411.50 1.148
411.60 1.159
411.70 1.171
411.80 1.182
411.90 1.193
412.00 1.204
412.10 1.214
412.20 1.224
412.30 1.234
412.40 1.243
412.50 1.252
412.60 1.262
412.70 1.271
412.80 1.279
412.90 1.288
413.00 1.296
413.10 1.304
413.20 1.312
413.30 1.32
413.40 1.327
413.50 1.335
413.60 1.342
413.70 1.349
413.80 1.355
413.90 1.362
414.00 1.368
414.10 1.374
414.20 1.381
414.30 1.386
414.40 1.392
414.50 1.398
414.60 1.403
414.70 1.409
414.80 1.414
414.90 1.419
415.00 1.424
415.10 1.428
415.20 1.433
415.30 1.437
415.40 1.442
415.50 1.446
415.60 1.45
415.70 1.454
415.80 1.458
415.90 1.461
416.00 1.465
416.10 1.468
416.20 1.472
416.30 1.475
416.40 1.479
416.50 1.482
416.60 1.485
416.70 1.488
416.80 1.491
416.90 1.494
417.00 1.497
417.10 1.5
417.20 1.502
417.30 1.504
417.40 1.507
417.50 1.509
417.60 1.511
417.70 1.513
417.80 1.515
417.90 1.517
418.00 1.519
418.10 1.52
418.20 1.522
418.30 1.524
418.40 1.525
418.50 1.526
418.60 1.528
418.70 1.529
418.80 1.53
418.90 1.531
419.00 1.532
419.10 1.533
419.20 1.534
419.30 1.535
419.40 1.536
419.50 1.536
419.60 1.537
419.70 1.537
419.80 1.538
419.90 1.538
420.00 1.538
420.10 1.538
420.20 1.538
420.30 1.539
420.40 1.539
420.50 1.538
420.60 1.538
420.70 1.538
420.80 1.538
420.90 1.537
421.00 1.537
421.10 1.536
421.20 1.536
421.30 1.535
421.40 1.534
421.50 1.534
421.60 1.533
421.70 1.532
421.80 1.531
421.90 1.53
422.00 1.529
422.10 1.527
422.20 1.526
422.30 1.525
422.40 1.523
422.50 1.522
422.60 1.52
422.70 1.519
422.80 1.517
422.90 1.515
423.00 1.513
423.10 1.511
423.20 1.509
423.30 1.507
423.40 1.505
423.50 1.503
423.60 1.501
423.70 1.499
423.80 1.496
423.90 1.494
424.00 1.491
424.10 1.489
424.20 1.486
424.30 1.483
424.40 1.48
424.50 1.477
424.60 1.475
424.70 1.471
424.80 1.468
424.90 1.465
425.00 1.462
425.10 1.459
425.20 1.455
425.30 1.452
425.40 1.448
425.50 1.444
425.60 1.441
425.70 1.437
425.80 1.433
425.90 1.429
426.00 1.425
426.10 1.421
426.20 1.416
426.30 1.411
426.40 1.407
426.50 1.402
426.60 1.398
426.70 1.393
426.80 1.389
426.90 1.384
427.00 1.379
427.10 1.374
427.20 1.369
427.30 1.364
427.40 1.359
427.50 1.353
427.60 1.348
427.70 1.342
427.80 1.337
427.90 1.331
428.00 1.325
428.10 1.32
428.20 1.314
428.30 1.308
428.40 1.301
428.50 1.295
428.60 1.289
428.70 1.283
428.80 1.276
428.90 1.269
429.00 1.263
429.10 1.256
429.20 1.249
429.30 1.242
429.40 1.235
429.50 1.227
429.60 1.22
429.70 1.212
429.80 1.205
429.90 1.197
430.00 1.189
430.10 1.181
430.20 1.173
430.30 1.164
430.40 1.156
430.50 1.147
430.60 1.139
430.70 1.13
430.80 1.12
430.90 1.111
431.00 1.102
431.10 1.092
431.20 1.082
431.30 1.072
431.40 1.062
431.50 1.051
431.60 1.041
431.70 1.03
431.80 1.019
431.90 1.008
432.00 0.9962
432.10 0.9846
432.20 0.9727
432.30 0.9605
432.40 0.948
432.50 0.9348
432.60 0.9213
432.70 0.9075
432.80 0.8933
432.90 0.8791
433.00 0.8648
433.10 0.8508
433.20 0.8367
433.30 0.8225
433.40 0.8081
433.50 0.7932
433.60 0.7781
433.70 0.7587
433.80 0.7342
433.90 0.7048
434.00 0.6748
434.10 0.6753
434.20 0.7064
434.30 0.7347
434.40 0.758
434.50 0.7762
434.60 0.7905
434.70 0.8044
434.80 0.818
434.90 0.8313
435.00 0.8445
435.10 0.8575
435.20 0.8708
435.30 0.8839
435.40 0.8971
435.50 0.9098
435.60 0.9221
435.70 0.9341
435.80 0.9453
435.90 0.9563
436.00 0.967
436.10 0.9773
436.20 0.9874
436.30 0.9973
436.40 1.007
436.50 1.016
436.60 1.026
436.70 1.035
436.80 1.044
436.90 1.053
437.00 1.061
437.10 1.069
437.20 1.077
437.30 1.085
437.40 1.093
437.50 1.1
437.60 1.107
437.70 1.115
437.80 1.122
437.90 1.128
438.00 1.135
438.10 1.142
438.20 1.148
438.30 1.154
438.40 1.16
438.50 1.166
438.60 1.172
438.70 1.178
438.80 1.184
438.90 1.189
439.00 1.195
439.10 1.2
439.20 1.205
439.30 1.21
439.40 1.215
439.50 1.22
439.60 1.225
439.70 1.229
439.80 1.234
439.90 1.238
440.00 1.243
440.10 1.247
440.20 1.251
440.30 1.256
440.40 1.26
440.50 1.264
440.60 1.268
440.70 1.271
440.80 1.275
440.90 1.279
441.00 1.283
441.10 1.286
441.20 1.29
441.30 1.293
441.40 1.296
441.50 1.299
441.60 1.303
441.70 1.306
441.80 1.309
441.90 1.312
442.00 1.315
442.10 1.317
442.20 1.32
442.30 1.323
442.40 1.325
442.50 1.328
442.60 1.331
442.70 1.333
442.80 1.335
442.90 1.338
443.00 1.34
443.10 1.342
443.20 1.344
443.30 1.347
443.40 1.349
443.50 1.351
443.60 1.353
443.70 1.355
443.80 1.357
443.90 1.359
444.00 1.36
444.10 1.362
444.20 1.364
444.30 1.366
444.40 1.367
444.50 1.369
444.60 1.37
444.70 1.372
444.80 1.373
444.90 1.375
445.00 1.376
445.10 1.377
445.20 1.379
445.30 1.38
445.40 1.381
445.50 1.382
445.60 1.384
445.70 1.385
445.80 1.386
445.90 1.387
446.00 1.388
446.10 1.389
446.20 1.39
446.30 1.391
446.40 1.392
446.50 1.393
446.60 1.393
446.70 1.394
446.80 1.395
446.90 1.396
447.00 1.397
447.10 1.397
447.20 1.398
447.30 1.399
447.40 1.399
447.50 1.4
447.60 1.4
447.70 1.401
447.80 1.401
447.90 1.402
448.00 1.402
448.10 1.403
448.20 1.403
448.30 1.403
448.40 1.404
448.50 1.404
448.60 1.405
448.70 1.405
448.80 1.405
448.90 1.405
449.00 1.406
449.10 1.406
449.20 1.406
449.30 1.406
449.40 1.407
449.50 1.407
449.60 1.407
449.70 1.407
449.80 1.407
449.90 1.407
450.00 1.407
450.10 1.407
450.20 1.407
450.30 1.407
450.40 1.407
450.50 1.407
450.60 1.407
450.70 1.407
450.80 1.407
450.90 1.407
451.00 1.407
451.10 1.406
451.20 1.406
451.30 1.406
451.40 1.406
451.50 1.406
451.60 1.406
451.70 1.405
451.80 1.405
451.90 1.405
452.00 1.405
452.10 1.404
452.20 1.404
452.30 1.404
452.40 1.403
452.50 1.403
452.60 1.403
452.70 1.402
452.80 1.402
452.90 1.401
453.00 1.401
453.10 1.401
453.20 1.4
453.30 1.4
453.40 1.399
453.50 1.399
453.60 1.398
453.70 1.398
453.80 1.398
