# Version 2.1 - nm, norm@500 to 1, cut digits, bergeron_3750_70.dat_3750
# Wavelength(nm)  Flambda(ergs/cm^s/s/nm)
300.00 0.1289
300.10 0.1291
300.20 0.1294
300.30 0.1297
300.40 0.13
300.50 0.1303
300.60 0.1306
300.70 0.1308
300.80 0.1311
300.90 0.1314
301.00 0.1317
301.10 0.132
301.20 0.1323
301.30 0.1325
301.40 0.1328
301.50 0.1331
301.60 0.1334
301.70 0.1337
301.80 0.134
301.90 0.1342
302.00 0.1345
302.10 0.1348
302.20 0.1351
302.30 0.1354
302.40 0.1357
302.50 0.136
302.60 0.1363
302.70 0.1366
302.80 0.1369
302.90 0.1372
303.00 0.1374
303.10 0.1377
303.20 0.138
303.30 0.1383
303.40 0.1386
303.50 0.1389
303.60 0.1392
303.70 0.1395
303.80 0.1398
303.90 0.14
304.00 0.1403
304.10 0.1406
304.20 0.1409
304.30 0.1412
304.40 0.1415
304.50 0.1418
304.60 0.1421
304.70 0.1424
304.80 0.1427
304.90 0.143
305.00 0.1433
305.10 0.1436
305.20 0.1439
305.30 0.1442
305.40 0.1445
305.50 0.1448
305.60 0.1451
305.70 0.1454
305.80 0.1457
305.90 0.146
306.00 0.1463
306.10 0.1466
306.20 0.1469
306.30 0.1472
306.40 0.1475
306.50 0.1478
306.60 0.1481
306.70 0.1484
306.80 0.1487
306.90 0.149
307.00 0.1493
307.10 0.1496
307.20 0.1499
307.30 0.1502
307.40 0.1505
307.50 0.1508
307.60 0.1512
307.70 0.1515
307.80 0.1518
307.90 0.1521
308.00 0.1524
308.10 0.1527
308.20 0.153
308.30 0.1533
308.40 0.1536
308.50 0.1539
308.60 0.1542
308.70 0.1545
308.80 0.1549
308.90 0.1552
309.00 0.1555
309.10 0.1558
309.20 0.1561
309.30 0.1564
309.40 0.1567
309.50 0.157
309.60 0.1573
309.70 0.1576
309.80 0.158
309.90 0.1583
310.00 0.1586
310.10 0.1589
310.20 0.1592
310.30 0.1595
310.40 0.1599
310.50 0.1602
310.60 0.1605
310.70 0.1608
310.80 0.1611
310.90 0.1614
311.00 0.1618
311.10 0.1621
311.20 0.1624
311.30 0.1627
311.40 0.163
311.50 0.1634
311.60 0.1637
311.70 0.164
311.80 0.1643
311.90 0.1646
312.00 0.1649
312.10 0.1652
312.20 0.1656
312.30 0.1659
312.40 0.1662
312.50 0.1665
312.60 0.1669
312.70 0.1672
312.80 0.1675
312.90 0.1678
313.00 0.1682
313.10 0.1685
313.20 0.1688
313.30 0.1691
313.40 0.1695
313.50 0.1698
313.60 0.1701
313.70 0.1704
313.80 0.1707
313.90 0.1711
314.00 0.1714
314.10 0.1717
314.20 0.172
314.30 0.1724
314.40 0.1727
314.50 0.173
314.60 0.1734
314.70 0.1737
314.80 0.174
314.90 0.1744
315.00 0.1747
315.10 0.175
315.20 0.1754
315.30 0.1757
315.40 0.176
315.50 0.1763
315.60 0.1767
315.70 0.177
315.80 0.1773
315.90 0.1777
316.00 0.178
316.10 0.1783
316.20 0.1787
316.30 0.179
316.40 0.1793
316.50 0.1797
316.60 0.18
316.70 0.1804
316.80 0.1807
316.90 0.181
317.00 0.1814
317.10 0.1817
317.20 0.182
317.30 0.1824
317.40 0.1827
317.50 0.183
317.60 0.1834
317.70 0.1837
317.80 0.184
317.90 0.1844
318.00 0.1847
318.10 0.1851
318.20 0.1854
318.30 0.1857
318.40 0.1861
318.50 0.1864
318.60 0.1868
318.70 0.1871
318.80 0.1875
318.90 0.1878
319.00 0.1882
319.10 0.1885
319.20 0.1888
319.30 0.1892
319.40 0.1895
319.50 0.1899
319.60 0.1902
319.70 0.1905
319.80 0.1909
319.90 0.1912
320.00 0.1916
320.10 0.1919
320.20 0.1923
320.30 0.1926
320.40 0.193
320.50 0.1933
320.60 0.1937
320.70 0.194
320.80 0.1944
320.90 0.1947
321.00 0.1951
321.10 0.1954
321.20 0.1958
321.30 0.1961
321.40 0.1965
321.50 0.1968
321.60 0.1972
321.70 0.1975
321.80 0.1978
321.90 0.1982
322.00 0.1985
322.10 0.1989
322.20 0.1993
322.30 0.1996
322.40 0.2
322.50 0.2003
322.60 0.2007
322.70 0.201
322.80 0.2014
322.90 0.2017
323.00 0.2021
323.10 0.2025
323.20 0.2028
323.30 0.2032
323.40 0.2035
323.50 0.2039
323.60 0.2042
323.70 0.2046
323.80 0.2049
323.90 0.2053
324.00 0.2056
324.10 0.206
324.20 0.2064
324.30 0.2067
324.40 0.2071
324.50 0.2074
324.60 0.2078
324.70 0.2082
324.80 0.2085
324.90 0.2089
325.00 0.2093
325.10 0.2096
325.20 0.21
325.30 0.2103
325.40 0.2107
325.50 0.2111
325.60 0.2114
325.70 0.2118
325.80 0.2121
325.90 0.2125
326.00 0.2128
326.10 0.2132
326.20 0.2136
326.30 0.214
326.40 0.2143
326.50 0.2147
326.60 0.2151
326.70 0.2154
326.80 0.2158
326.90 0.2162
327.00 0.2165
327.10 0.2169
327.20 0.2173
327.30 0.2176
327.40 0.218
327.50 0.2184
327.60 0.2187
327.70 0.2191
327.80 0.2194
327.90 0.2198
328.00 0.2202
328.10 0.2206
328.20 0.2209
328.30 0.2213
328.40 0.2217
328.50 0.222
328.60 0.2224
328.70 0.2228
328.80 0.2232
328.90 0.2235
329.00 0.2239
329.10 0.2243
329.20 0.2247
329.30 0.225
329.40 0.2254
329.50 0.2258
329.60 0.2261
329.70 0.2265
329.80 0.2269
329.90 0.2272
330.00 0.2276
330.10 0.228
330.20 0.2284
330.30 0.2288
330.40 0.2291
330.50 0.2295
330.60 0.2299
330.70 0.2303
330.80 0.2307
330.90 0.231
331.00 0.2314
331.10 0.2318
331.20 0.2322
331.30 0.2325
331.40 0.2329
331.50 0.2333
331.60 0.2337
331.70 0.2341
331.80 0.2344
331.90 0.2348
332.00 0.2352
332.10 0.2356
332.20 0.2359
332.30 0.2363
332.40 0.2367
332.50 0.2371
332.60 0.2375
332.70 0.2379
332.80 0.2383
332.90 0.2386
333.00 0.239
333.10 0.2394
333.20 0.2398
333.30 0.2402
333.40 0.2406
333.50 0.2409
333.60 0.2413
333.70 0.2417
333.80 0.2421
333.90 0.2425
334.00 0.2428
334.10 0.2432
334.20 0.2436
334.30 0.244
334.40 0.2444
334.50 0.2448
334.60 0.2452
334.70 0.2456
334.80 0.246
334.90 0.2464
335.00 0.2468
335.10 0.2471
335.20 0.2475
335.30 0.2479
335.40 0.2483
335.50 0.2487
335.60 0.2491
335.70 0.2495
335.80 0.2498
335.90 0.2502
336.00 0.2506
336.10 0.251
336.20 0.2514
336.30 0.2518
336.40 0.2522
336.50 0.2526
336.60 0.253
336.70 0.2534
336.80 0.2538
336.90 0.2542
337.00 0.2546
337.10 0.255
337.20 0.2554
337.30 0.2558
337.40 0.2562
337.50 0.2565
337.60 0.2569
337.70 0.2573
337.80 0.2577
337.90 0.2581
338.00 0.2585
338.10 0.2589
338.20 0.2593
338.30 0.2597
338.40 0.2601
338.50 0.2605
338.60 0.2609
338.70 0.2613
338.80 0.2617
338.90 0.2621
339.00 0.2625
339.10 0.2629
339.20 0.2633
339.30 0.2637
339.40 0.2641
339.50 0.2645
339.60 0.2649
339.70 0.2653
339.80 0.2657
339.90 0.2661
340.00 0.2665
340.10 0.2669
340.20 0.2673
340.30 0.2677
340.40 0.2681
340.50 0.2685
340.60 0.2689
340.70 0.2693
340.80 0.2697
340.90 0.2701
341.00 0.2705
341.10 0.2709
341.20 0.2714
341.30 0.2718
341.40 0.2722
341.50 0.2726
341.60 0.273
341.70 0.2734
341.80 0.2738
341.90 0.2742
342.00 0.2746
342.10 0.275
342.20 0.2754
342.30 0.2758
342.40 0.2762
342.50 0.2766
342.60 0.277
342.70 0.2774
342.80 0.2779
342.90 0.2783
343.00 0.2787
343.10 0.2791
343.20 0.2795
343.30 0.2799
343.40 0.2803
343.50 0.2807
343.60 0.2811
343.70 0.2815
343.80 0.2819
343.90 0.2823
344.00 0.2827
344.10 0.2832
344.20 0.2836
344.30 0.284
344.40 0.2844
344.50 0.2848
344.60 0.2852
344.70 0.2857
344.80 0.2861
344.90 0.2865
345.00 0.2869
345.10 0.2873
345.20 0.2877
345.30 0.2881
345.40 0.2886
345.50 0.289
345.60 0.2894
345.70 0.2898
345.80 0.2902
345.90 0.2906
346.00 0.291
346.10 0.2914
346.20 0.2919
346.30 0.2923
346.40 0.2927
346.50 0.2931
346.60 0.2936
346.70 0.294
346.80 0.2944
346.90 0.2948
347.00 0.2952
347.10 0.2956
347.20 0.2961
347.30 0.2965
347.40 0.2969
347.50 0.2973
347.60 0.2977
347.70 0.2981
347.80 0.2986
347.90 0.299
348.00 0.2994
348.10 0.2998
348.20 0.3002
348.30 0.3007
348.40 0.3011
348.50 0.3015
348.60 0.3019
348.70 0.3024
348.80 0.3028
348.90 0.3032
349.00 0.3036
349.10 0.3041
349.20 0.3045
349.30 0.3049
349.40 0.3053
349.50 0.3058
349.60 0.3062
349.70 0.3066
349.80 0.307
349.90 0.3074
350.00 0.3079
350.10 0.3083
350.20 0.3087
350.30 0.3091
350.40 0.3096
350.50 0.31
350.60 0.3104
350.70 0.3109
350.80 0.3113
350.90 0.3117
351.00 0.3121
351.10 0.3126
351.20 0.313
351.30 0.3134
351.40 0.3139
351.50 0.3143
351.60 0.3147
351.70 0.3151
351.80 0.3155
351.90 0.316
352.00 0.3164
352.10 0.3168
352.20 0.3173
352.30 0.3177
352.40 0.3181
352.50 0.3186
352.60 0.319
352.70 0.3194
352.80 0.3199
352.90 0.3203
353.00 0.3207
353.10 0.3212
353.20 0.3216
353.30 0.322
353.40 0.3225
353.50 0.3229
353.60 0.3233
353.70 0.3237
353.80 0.3242
353.90 0.3246
354.00 0.325
354.10 0.3255
354.20 0.3259
354.30 0.3263
354.40 0.3268
354.50 0.3272
354.60 0.3277
354.70 0.3281
354.80 0.3285
354.90 0.329
355.00 0.3294
355.10 0.3298
355.20 0.3303
355.30 0.3307
355.40 0.3311
355.50 0.3316
355.60 0.332
355.70 0.3324
355.80 0.3329
355.90 0.3333
356.00 0.3337
356.10 0.3342
356.20 0.3346
356.30 0.3351
356.40 0.3355
356.50 0.336
356.60 0.3364
356.70 0.3368
356.80 0.3373
356.90 0.3377
357.00 0.3382
357.10 0.3386
357.20 0.339
357.30 0.3395
357.40 0.3399
357.50 0.3403
357.60 0.3408
357.70 0.3412
357.80 0.3416
357.90 0.3421
358.00 0.3425
358.10 0.343
358.20 0.3434
358.30 0.3439
358.40 0.3443
358.50 0.3448
358.60 0.3452
358.70 0.3456
358.80 0.3461
358.90 0.3465
359.00 0.347
359.10 0.3474
359.20 0.3479
359.30 0.3483
359.40 0.3488
359.50 0.3492
359.60 0.3496
359.70 0.3501
359.80 0.3505
359.90 0.351
360.00 0.3514
360.10 0.3518
360.20 0.3523
360.30 0.3527
360.40 0.3532
360.50 0.3536
360.60 0.3541
360.70 0.3545
360.80 0.355
360.90 0.3554
361.00 0.3559
361.10 0.3563
361.20 0.3568
361.30 0.3572
361.40 0.3577
361.50 0.3581
361.60 0.3586
361.70 0.359
361.80 0.3594
361.90 0.3599
362.00 0.3603
362.10 0.3608
362.20 0.3612
362.30 0.3617
362.40 0.3621
362.50 0.3626
362.60 0.363
362.70 0.3635
362.80 0.3639
362.90 0.3644
363.00 0.3648
363.10 0.3653
363.20 0.3657
363.30 0.3662
363.40 0.3666
363.50 0.3671
363.60 0.3676
363.70 0.368
363.80 0.3685
363.90 0.3689
364.00 0.3694
364.10 0.3698
364.20 0.3703
364.30 0.3707
364.40 0.3712
364.50 0.3716
364.60 0.3721
364.70 0.3725
364.80 0.373
364.90 0.3734
365.00 0.3739
365.10 0.3743
365.20 0.3748
365.30 0.3753
365.40 0.3757
365.50 0.3762
365.60 0.3766
365.70 0.3771
365.80 0.3775
365.90 0.378
366.00 0.3784
366.10 0.3789
366.20 0.3793
366.30 0.3798
366.40 0.3803
366.50 0.3807
366.60 0.3812
366.70 0.3816
366.80 0.3821
366.90 0.3826
367.00 0.383
367.10 0.3835
367.20 0.3839
367.30 0.3844
367.40 0.3848
367.50 0.3853
367.60 0.3857
367.70 0.3862
367.80 0.3866
367.90 0.3871
368.00 0.3876
368.10 0.388
368.20 0.3885
368.30 0.3889
368.40 0.3894
368.50 0.3899
368.60 0.3903
368.70 0.3908
368.80 0.3913
368.90 0.3917
369.00 0.3922
369.10 0.3926
369.20 0.3931
369.30 0.3936
369.40 0.394
369.50 0.3945
369.60 0.3949
369.70 0.3954
369.80 0.3958
369.90 0.3963
370.00 0.3967
370.10 0.3972
370.20 0.3977
370.30 0.3982
370.40 0.3986
370.50 0.3991
370.60 0.3996
370.70 0.4
370.80 0.4005
370.90 0.401
371.00 0.4014
371.10 0.4019
371.20 0.4023
371.30 0.4028
371.40 0.4033
371.50 0.4037
371.60 0.4042
371.70 0.4047
371.80 0.4051
371.90 0.4056
372.00 0.406
372.10 0.4065
372.20 0.407
372.30 0.4074
372.40 0.4079
372.50 0.4084
372.60 0.4089
372.70 0.4093
372.80 0.4098
372.90 0.4103
373.00 0.4107
373.10 0.4112
373.20 0.4116
373.30 0.4121
373.40 0.4126
373.50 0.413
373.60 0.4135
373.70 0.414
373.80 0.4144
373.90 0.4149
374.00 0.4153
374.10 0.4158
374.20 0.4163
374.30 0.4168
374.40 0.4172
374.50 0.4177
374.60 0.4182
374.70 0.4186
374.80 0.4191
374.90 0.4196
375.00 0.4201
375.10 0.4205
375.20 0.421
375.30 0.4215
375.40 0.4219
375.50 0.4224
375.60 0.4229
375.70 0.4233
375.80 0.4238
375.90 0.4242
376.00 0.4247
376.10 0.4252
376.20 0.4257
376.30 0.4261
376.40 0.4266
376.50 0.4271
376.60 0.4275
376.70 0.428
376.80 0.4285
376.90 0.4289
377.00 0.4294
377.10 0.4299
377.20 0.4304
377.30 0.4308
377.40 0.4313
377.50 0.4318
377.60 0.4322
377.70 0.4327
377.80 0.4332
377.90 0.4336
378.00 0.4341
378.10 0.4346
378.20 0.4351
378.30 0.4355
378.40 0.436
378.50 0.4365
378.60 0.437
378.70 0.4374
378.80 0.4379
378.90 0.4384
379.00 0.4389
379.10 0.4393
379.20 0.4398
379.30 0.4403
379.40 0.4408
379.50 0.4412
379.60 0.4417
379.70 0.4422
379.80 0.4427
379.90 0.4431
380.00 0.4436
380.10 0.4441
380.20 0.4446
380.30 0.445
380.40 0.4455
380.50 0.446
380.60 0.4465
380.70 0.4469
380.80 0.4474
380.90 0.4479
381.00 0.4484
381.10 0.4488
381.20 0.4493
381.30 0.4498
381.40 0.4503
381.50 0.4507
381.60 0.4512
381.70 0.4517
381.80 0.4521
381.90 0.4526
382.00 0.4531
382.10 0.4536
382.20 0.4541
382.30 0.4545
382.40 0.455
382.50 0.4555
382.60 0.456
382.70 0.4565
382.80 0.4569
382.90 0.4574
383.00 0.4579
383.10 0.4584
383.20 0.4588
383.30 0.4593
383.40 0.4598
383.50 0.4603
383.60 0.4607
383.70 0.4612
383.80 0.4617
383.90 0.4622
384.00 0.4626
384.10 0.4631
384.20 0.4636
384.30 0.4641
384.40 0.4646
384.50 0.4651
384.60 0.4655
384.70 0.466
384.80 0.4665
384.90 0.4669
385.00 0.4674
385.10 0.4679
385.20 0.4684
385.30 0.4689
385.40 0.4694
385.50 0.4698
385.60 0.4703
385.70 0.4708
385.80 0.4713
385.90 0.4717
386.00 0.4722
386.10 0.4727
386.20 0.4732
386.30 0.4737
386.40 0.4741
386.50 0.4746
386.60 0.4751
386.70 0.4756
386.80 0.4761
386.90 0.4766
387.00 0.4771
387.10 0.4775
387.20 0.478
387.30 0.4785
387.40 0.479
387.50 0.4794
387.60 0.4799
387.70 0.4804
387.80 0.4809
387.90 0.4814
388.00 0.4819
388.10 0.4823
388.20 0.4828
388.30 0.4833
388.40 0.4838
388.50 0.4843
388.60 0.4848
388.70 0.4852
388.80 0.4857
388.90 0.4862
389.00 0.4867
389.10 0.4872
389.20 0.4876
389.30 0.4881
389.40 0.4886
389.50 0.4891
389.60 0.4896
389.70 0.4901
389.80 0.4905
389.90 0.491
390.00 0.4915
390.10 0.492
390.20 0.4925
390.30 0.493
390.40 0.4934
390.50 0.4939
390.60 0.4944
390.70 0.4949
390.80 0.4954
390.90 0.4959
391.00 0.4963
391.10 0.4968
391.20 0.4973
391.30 0.4978
391.40 0.4983
391.50 0.4988
391.60 0.4993
391.70 0.4997
391.80 0.5002
391.90 0.5007
392.00 0.5012
392.10 0.5017
392.20 0.5022
392.30 0.5026
392.40 0.5031
392.50 0.5036
392.60 0.5041
392.70 0.5046
392.80 0.5051
392.90 0.5056
393.00 0.506
393.10 0.5065
393.20 0.507
393.30 0.5075
393.40 0.508
393.50 0.5085
393.60 0.509
393.70 0.5094
393.80 0.5099
393.90 0.5104
394.00 0.5109
394.10 0.5114
394.20 0.5119
394.30 0.5124
394.40 0.5128
394.50 0.5133
394.60 0.5138
394.70 0.5143
394.80 0.5148
394.90 0.5153
395.00 0.5158
395.10 0.5162
395.20 0.5167
395.30 0.5172
395.40 0.5177
395.50 0.5182
395.60 0.5187
395.70 0.5192
395.80 0.5197
395.90 0.5201
396.00 0.5206
396.10 0.5211
396.20 0.5216
396.30 0.5221
396.40 0.5226
396.50 0.5231
396.60 0.5235
396.70 0.524
396.80 0.5245
396.90 0.525
397.00 0.5255
397.10 0.526
397.20 0.5265
397.30 0.527
397.40 0.5275
397.50 0.5279
397.60 0.5284
397.70 0.5289
397.80 0.5294
397.90 0.5299
398.00 0.5304
398.10 0.5309
398.20 0.5314
398.30 0.5318
398.40 0.5323
398.50 0.5328
398.60 0.5333
398.70 0.5338
398.80 0.5343
398.90 0.5348
399.00 0.5353
399.10 0.5358
399.20 0.5362
399.30 0.5367
399.40 0.5372
399.50 0.5377
399.60 0.5382
399.70 0.5387
399.80 0.5392
399.90 0.5397
400.00 0.5401
400.10 0.5406
400.20 0.5411
400.30 0.5416
400.40 0.5421
400.50 0.5426
400.60 0.5431
400.70 0.5436
400.80 0.5441
400.90 0.5446
401.00 0.545
401.10 0.5455
401.20 0.546
401.30 0.5465
401.40 0.547
401.50 0.5475
401.60 0.548
401.70 0.5485
401.80 0.549
401.90 0.5494
402.00 0.5499
402.10 0.5504
402.20 0.5509
402.30 0.5514
402.40 0.5519
402.50 0.5524
402.60 0.5529
402.70 0.5534
402.80 0.5538
402.90 0.5543
403.00 0.5548
403.10 0.5553
403.20 0.5558
403.30 0.5563
403.40 0.5568
403.50 0.5573
403.60 0.5578
403.70 0.5582
403.80 0.5587
403.90 0.5592
404.00 0.5597
404.10 0.5602
404.20 0.5607
404.30 0.5612
404.40 0.5617
404.50 0.5622
404.60 0.5627
404.70 0.5632
404.80 0.5636
404.90 0.5641
405.00 0.5646
405.10 0.5651
405.20 0.5656
405.30 0.5661
405.40 0.5666
405.50 0.5671
405.60 0.5676
405.70 0.5681
405.80 0.5685
405.90 0.569
406.00 0.5695
406.10 0.57
406.20 0.5705
406.30 0.571
406.40 0.5715
406.50 0.572
406.60 0.5725
406.70 0.573
406.80 0.5734
406.90 0.5739
407.00 0.5744
407.10 0.5749
407.20 0.5754
407.30 0.5759
407.40 0.5764
407.50 0.5769
407.60 0.5774
407.70 0.5779
407.80 0.5784
407.90 0.5788
408.00 0.5793
408.10 0.5798
408.20 0.5803
408.30 0.5808
408.40 0.5813
408.50 0.5818
408.60 0.5823
408.70 0.5828
408.80 0.5833
408.90 0.5838
409.00 0.5842
409.10 0.5847
409.20 0.5852
409.30 0.5857
409.40 0.5862
409.50 0.5867
409.60 0.5872
409.70 0.5877
409.80 0.5882
409.90 0.5887
410.00 0.5892
410.10 0.5896
410.20 0.5901
410.30 0.5906
410.40 0.5911
410.50 0.5916
410.60 0.5921
410.70 0.5926
410.80 0.5931
410.90 0.5936
411.00 0.5941
411.10 0.5946
411.20 0.5951
411.30 0.5955
411.40 0.596
411.50 0.5965
411.60 0.597
411.70 0.5975
411.80 0.598
411.90 0.5985
412.00 0.599
412.10 0.5995
412.20 0.6
412.30 0.6005
412.40 0.6009
412.50 0.6014
412.60 0.6019
412.70 0.6024
412.80 0.6029
412.90 0.6034
413.00 0.6039
413.10 0.6044
413.20 0.6049
413.30 0.6054
413.40 0.6058
413.50 0.6063
413.60 0.6068
413.70 0.6073
413.80 0.6078
413.90 0.6083
414.00 0.6088
414.10 0.6093
414.20 0.6098
414.30 0.6103
414.40 0.6107
414.50 0.6113
414.60 0.6117
414.70 0.6122
414.80 0.6127
414.90 0.6132
415.00 0.6137
415.10 0.6142
415.20 0.6147
415.30 0.6152
415.40 0.6157
415.50 0.6162
415.60 0.6166
415.70 0.6171
415.80 0.6176
415.90 0.6181
416.00 0.6186
416.10 0.6191
416.20 0.6196
416.30 0.6201
416.40 0.6206
416.50 0.6211
416.60 0.6215
416.70 0.622
416.80 0.6225
416.90 0.623
417.00 0.6235
417.10 0.624
417.20 0.6245
417.30 0.625
417.40 0.6255
417.50 0.626
417.60 0.6265
417.70 0.627
417.80 0.6274
417.90 0.6279
418.00 0.6284
418.10 0.6289
418.20 0.6294
418.30 0.6299
418.40 0.6304
418.50 0.6309
418.60 0.6314
418.70 0.6318
418.80 0.6323
418.90 0.6328
419.00 0.6333
419.10 0.6338
419.20 0.6343
419.30 0.6348
419.40 0.6353
419.50 0.6358
419.60 0.6363
419.70 0.6367
419.80 0.6372
419.90 0.6377
420.00 0.6382
420.10 0.6387
420.20 0.6392
420.30 0.6397
420.40 0.6402
420.50 0.6407
420.60 0.6412
420.70 0.6416
420.80 0.6421
420.90 0.6426
421.00 0.6431
421.10 0.6436
421.20 0.6441
421.30 0.6446
421.40 0.6451
421.50 0.6456
421.60 0.6461
421.70 0.6465
421.80 0.647
421.90 0.6475
422.00 0.648
422.10 0.6485
422.20 0.649
422.30 0.6495
422.40 0.65
422.50 0.6504
422.60 0.6509
422.70 0.6514
422.80 0.6519
422.90 0.6524
423.00 0.6529
423.10 0.6534
423.20 0.6539
423.30 0.6544
423.40 0.6548
423.50 0.6553
423.60 0.6558
423.70 0.6563
423.80 0.6568
423.90 0.6573
424.00 0.6578
424.10 0.6583
424.20 0.6588
424.30 0.6592
424.40 0.6597
424.50 0.6602
424.60 0.6607
424.70 0.6612
424.80 0.6617
424.90 0.6622
425.00 0.6627
425.10 0.6632
425.20 0.6636
425.30 0.6641
425.40 0.6646
425.50 0.6651
425.60 0.6656
425.70 0.6661
425.80 0.6666
425.90 0.6671
426.00 0.6675
426.10 0.668
426.20 0.6685
426.30 0.669
426.40 0.6695
426.50 0.67
426.60 0.6705
426.70 0.6709
426.80 0.6714
426.90 0.6719
427.00 0.6724
427.10 0.6729
427.20 0.6734
427.30 0.6739
427.40 0.6744
427.50 0.6749
427.60 0.6753
427.70 0.6758
427.80 0.6763
427.90 0.6768
428.00 0.6773
428.10 0.6778
428.20 0.6782
428.30 0.6787
428.40 0.6792
428.50 0.6797
428.60 0.6802
428.70 0.6807
428.80 0.6812
428.90 0.6817
429.00 0.6821
429.10 0.6826
429.20 0.6831
429.30 0.6836
429.40 0.6841
429.50 0.6846
429.60 0.6851
429.70 0.6855
429.80 0.686
429.90 0.6865
430.00 0.687
430.10 0.6875
430.20 0.688
430.30 0.6885
430.40 0.6889
430.50 0.6894
430.60 0.6899
430.70 0.6904
430.80 0.6909
430.90 0.6914
431.00 0.6919
431.10 0.6923
431.20 0.6928
431.30 0.6933
431.40 0.6938
431.50 0.6943
431.60 0.6948
431.70 0.6952
431.80 0.6957
431.90 0.6962
432.00 0.6967
432.10 0.6972
432.20 0.6977
432.30 0.6982
432.40 0.6986
432.50 0.6991
432.60 0.6996
432.70 0.7001
432.80 0.7006
432.90 0.7011
433.00 0.7015
433.10 0.702
433.20 0.7025
433.30 0.703
433.40 0.7035
433.50 0.704
433.60 0.7044
433.70 0.7049
433.80 0.7054
433.90 0.7059
434.00 0.7064
434.10 0.7068
434.20 0.7073
434.30 0.7078
434.40 0.7083
434.50 0.7088
434.60 0.7093
434.70 0.7098
434.80 0.7102
434.90 0.7107
435.00 0.7112
435.10 0.7117
435.20 0.7122
435.30 0.7127
435.40 0.7131
435.50 0.7136
435.60 0.7141
435.70 0.7146
435.80 0.7151
435.90 0.7155
436.00 0.716
436.10 0.7165
436.20 0.717
436.30 0.7175
436.40 0.7179
436.50 0.7184
436.60 0.7189
436.70 0.7194
436.80 0.7199
436.90 0.7204
437.00 0.7208
437.10 0.7213
437.20 0.7218
437.30 0.7223
437.40 0.7228
437.50 0.7232
437.60 0.7237
437.70 0.7242
437.80 0.7247
437.90 0.7252
438.00 0.7256
438.10 0.7261
438.20 0.7266
438.30 0.7271
438.40 0.7276
438.50 0.7281
438.60 0.7285
438.70 0.729
438.80 0.7295
438.90 0.73
439.00 0.7304
439.10 0.7309
439.20 0.7314
439.30 0.7319
439.40 0.7324
439.50 0.7328
439.60 0.7333
439.70 0.7338
439.80 0.7343
439.90 0.7348
440.00 0.7352
440.10 0.7357
440.20 0.7362
440.30 0.7367
440.40 0.7372
440.50 0.7376
440.60 0.7381
440.70 0.7386
440.80 0.7391
440.90 0.7395
441.00 0.74
441.10 0.7405
441.20 0.741
441.30 0.7414
441.40 0.7419
441.50 0.7424
441.60 0.7429
441.70 0.7434
441.80 0.7438
441.90 0.7443
442.00 0.7448
442.10 0.7453
442.20 0.7457
442.30 0.7462
442.40 0.7467
442.50 0.7472
442.60 0.7477
442.70 0.7481
442.80 0.7486
442.90 0.7491
443.00 0.7496
