# Version 2.1 - nm, norm@500 to 1, cut digits, bergeron_15000_70.dat_15000
# Wavelength(nm)  Flambda(ergs/cm^s/s/nm)
300.00 2.144
300.10 2.142
300.20 2.14
300.30 2.139
300.40 2.137
300.50 2.135
300.60 2.134
300.70 2.132
300.80 2.13
300.90 2.129
301.00 2.127
301.10 2.126
301.20 2.124
301.30 2.122
301.40 2.121
301.50 2.119
301.60 2.117
301.70 2.116
301.80 2.114
301.90 2.113
302.00 2.111
302.10 2.109
302.20 2.108
302.30 2.106
302.40 2.105
302.50 2.103
302.60 2.101
302.70 2.1
302.80 2.098
302.90 2.097
303.00 2.095
303.10 2.093
303.20 2.092
303.30 2.09
303.40 2.089
303.50 2.087
303.60 2.086
303.70 2.084
303.80 2.082
303.90 2.081
304.00 2.079
304.10 2.078
304.20 2.076
304.30 2.075
304.40 2.073
304.50 2.071
304.60 2.07
304.70 2.068
304.80 2.067
304.90 2.065
305.00 2.064
305.10 2.062
305.20 2.06
305.30 2.059
305.40 2.057
305.50 2.056
305.60 2.054
305.70 2.053
305.80 2.051
305.90 2.05
306.00 2.048
306.10 2.047
306.20 2.045
306.30 2.043
306.40 2.042
306.50 2.04
306.60 2.039
306.70 2.037
306.80 2.036
306.90 2.034
307.00 2.033
307.10 2.031
307.20 2.03
307.30 2.028
307.40 2.027
307.50 2.025
307.60 2.024
307.70 2.022
307.80 2.021
307.90 2.019
308.00 2.018
308.10 2.016
308.20 2.015
308.30 2.013
308.40 2.012
308.50 2.01
308.60 2.009
308.70 2.007
308.80 2.006
308.90 2.004
309.00 2.003
309.10 2.001
309.20 2
309.30 1.998
309.40 1.997
309.50 1.995
309.60 1.994
309.70 1.992
309.80 1.991
309.90 1.989
310.00 1.988
310.10 1.986
310.20 1.985
310.30 1.983
310.40 1.982
310.50 1.98
310.60 1.979
310.70 1.977
310.80 1.976
310.90 1.974
311.00 1.973
311.10 1.971
311.20 1.97
311.30 1.969
311.40 1.967
311.50 1.966
311.60 1.964
311.70 1.963
311.80 1.961
311.90 1.96
312.00 1.958
312.10 1.957
312.20 1.955
312.30 1.954
312.40 1.953
312.50 1.951
312.60 1.95
312.70 1.948
312.80 1.947
312.90 1.945
313.00 1.944
313.10 1.943
313.20 1.941
313.30 1.94
313.40 1.938
313.50 1.937
313.60 1.935
313.70 1.934
313.80 1.933
313.90 1.931
314.00 1.93
314.10 1.928
314.20 1.927
314.30 1.925
314.40 1.924
314.50 1.923
314.60 1.921
314.70 1.92
314.80 1.918
314.90 1.917
315.00 1.916
315.10 1.914
315.20 1.913
315.30 1.911
315.40 1.91
315.50 1.909
315.60 1.907
315.70 1.906
315.80 1.904
315.90 1.903
316.00 1.902
316.10 1.9
316.20 1.899
316.30 1.897
316.40 1.896
316.50 1.895
316.60 1.893
316.70 1.892
316.80 1.89
316.90 1.889
317.00 1.888
317.10 1.886
317.20 1.885
317.30 1.884
317.40 1.882
317.50 1.881
317.60 1.879
317.70 1.878
317.80 1.877
317.90 1.875
318.00 1.874
318.10 1.873
318.20 1.871
318.30 1.87
318.40 1.868
318.50 1.867
318.60 1.866
318.70 1.864
318.80 1.863
318.90 1.862
319.00 1.86
319.10 1.859
319.20 1.858
319.30 1.856
319.40 1.855
319.50 1.854
319.60 1.852
319.70 1.851
319.80 1.85
319.90 1.848
320.00 1.847
320.10 1.846
320.20 1.844
320.30 1.843
320.40 1.842
320.50 1.84
320.60 1.839
320.70 1.838
320.80 1.836
320.90 1.835
321.00 1.834
321.10 1.832
321.20 1.831
321.30 1.83
321.40 1.828
321.50 1.827
321.60 1.826
321.70 1.824
321.80 1.823
321.90 1.822
322.00 1.82
322.10 1.819
322.20 1.818
322.30 1.816
322.40 1.815
322.50 1.814
322.60 1.812
322.70 1.811
322.80 1.81
322.90 1.809
323.00 1.807
323.10 1.806
323.20 1.805
323.30 1.803
323.40 1.802
323.50 1.801
323.60 1.799
323.70 1.798
323.80 1.797
323.90 1.796
324.00 1.794
324.10 1.793
324.20 1.792
324.30 1.79
324.40 1.789
324.50 1.788
324.60 1.787
324.70 1.785
324.80 1.784
324.90 1.783
325.00 1.781
325.10 1.78
325.20 1.779
325.30 1.778
325.40 1.776
325.50 1.775
325.60 1.774
325.70 1.773
325.80 1.771
325.90 1.77
326.00 1.769
326.10 1.768
326.20 1.766
326.30 1.765
326.40 1.764
326.50 1.762
326.60 1.761
326.70 1.76
326.80 1.759
326.90 1.757
327.00 1.756
327.10 1.755
327.20 1.754
327.30 1.752
327.40 1.751
327.50 1.75
327.60 1.749
327.70 1.747
327.80 1.746
327.90 1.745
328.00 1.744
328.10 1.742
328.20 1.741
328.30 1.74
328.40 1.739
328.50 1.738
328.60 1.736
328.70 1.735
328.80 1.734
328.90 1.733
329.00 1.731
329.10 1.73
329.20 1.729
329.30 1.728
329.40 1.726
329.50 1.725
329.60 1.724
329.70 1.723
329.80 1.722
329.90 1.72
330.00 1.719
330.10 1.718
330.20 1.717
330.30 1.716
330.40 1.714
330.50 1.713
330.60 1.712
330.70 1.711
330.80 1.709
330.90 1.708
331.00 1.707
331.10 1.706
331.20 1.705
331.30 1.703
331.40 1.702
331.50 1.701
331.60 1.7
331.70 1.699
331.80 1.697
331.90 1.696
332.00 1.695
332.10 1.694
332.20 1.693
332.30 1.691
332.40 1.69
332.50 1.689
332.60 1.688
332.70 1.687
332.80 1.686
332.90 1.684
333.00 1.683
333.10 1.682
333.20 1.681
333.30 1.68
333.40 1.678
333.50 1.677
333.60 1.676
333.70 1.675
333.80 1.674
333.90 1.673
334.00 1.671
334.10 1.67
334.20 1.669
334.30 1.668
334.40 1.667
334.50 1.666
334.60 1.664
334.70 1.663
334.80 1.662
334.90 1.661
335.00 1.66
335.10 1.659
335.20 1.657
335.30 1.656
335.40 1.655
335.50 1.654
335.60 1.653
335.70 1.652
335.80 1.65
335.90 1.649
336.00 1.648
336.10 1.647
336.20 1.646
336.30 1.645
336.40 1.644
336.50 1.642
336.60 1.641
336.70 1.64
336.80 1.639
336.90 1.638
337.00 1.637
337.10 1.636
337.20 1.634
337.30 1.633
337.40 1.632
337.50 1.631
337.60 1.63
337.70 1.629
337.80 1.628
337.90 1.627
338.00 1.625
338.10 1.624
338.20 1.623
338.30 1.622
338.40 1.621
338.50 1.62
338.60 1.619
338.70 1.618
338.80 1.616
338.90 1.615
339.00 1.614
339.10 1.613
339.20 1.612
339.30 1.611
339.40 1.61
339.50 1.609
339.60 1.607
339.70 1.606
339.80 1.605
339.90 1.604
340.00 1.603
340.10 1.602
340.20 1.601
340.30 1.6
340.40 1.599
340.50 1.597
340.60 1.596
340.70 1.595
340.80 1.594
340.90 1.593
341.00 1.592
341.10 1.591
341.20 1.59
341.30 1.589
341.40 1.588
341.50 1.586
341.60 1.585
341.70 1.584
341.80 1.583
341.90 1.582
342.00 1.581
342.10 1.58
342.20 1.579
342.30 1.578
342.40 1.577
342.50 1.576
342.60 1.575
342.70 1.573
342.80 1.572
342.90 1.571
343.00 1.57
343.10 1.569
343.20 1.568
343.30 1.567
343.40 1.566
343.50 1.565
343.60 1.564
343.70 1.563
343.80 1.562
343.90 1.561
344.00 1.559
344.10 1.558
344.20 1.557
344.30 1.556
344.40 1.555
344.50 1.554
344.60 1.553
344.70 1.552
344.80 1.551
344.90 1.55
345.00 1.549
345.10 1.548
345.20 1.547
345.30 1.546
345.40 1.545
345.50 1.544
345.60 1.542
345.70 1.541
345.80 1.54
345.90 1.539
346.00 1.538
346.10 1.537
346.20 1.536
346.30 1.535
346.40 1.534
346.50 1.533
346.60 1.532
346.70 1.531
346.80 1.53
346.90 1.529
347.00 1.528
347.10 1.527
347.20 1.526
347.30 1.525
347.40 1.524
347.50 1.523
347.60 1.522
347.70 1.521
347.80 1.52
347.90 1.519
348.00 1.517
348.10 1.516
348.20 1.515
348.30 1.514
348.40 1.513
348.50 1.512
348.60 1.511
348.70 1.51
348.80 1.509
348.90 1.508
349.00 1.507
349.10 1.506
349.20 1.505
349.30 1.504
349.40 1.503
349.50 1.502
349.60 1.501
349.70 1.5
349.80 1.499
349.90 1.498
350.00 1.497
350.10 1.496
350.20 1.495
350.30 1.494
350.40 1.493
350.50 1.492
350.60 1.491
350.70 1.49
350.80 1.489
350.90 1.488
351.00 1.487
351.10 1.486
351.20 1.485
351.30 1.484
351.40 1.483
351.50 1.482
351.60 1.481
351.70 1.48
351.80 1.479
351.90 1.478
352.00 1.477
352.10 1.476
352.20 1.475
352.30 1.474
352.40 1.473
352.50 1.472
352.60 1.471
352.70 1.47
352.80 1.469
352.90 1.468
353.00 1.467
353.10 1.466
353.20 1.465
353.30 1.464
353.40 1.463
353.50 1.462
353.60 1.461
353.70 1.46
353.80 1.459
353.90 1.458
354.00 1.457
354.10 1.456
354.20 1.455
354.30 1.454
354.40 1.453
354.50 1.452
354.60 1.451
354.70 1.45
354.80 1.449
354.90 1.448
355.00 1.448
355.10 1.447
355.20 1.446
355.30 1.445
355.40 1.444
355.50 1.443
355.60 1.442
355.70 1.441
355.80 1.44
355.90 1.439
356.00 1.438
356.10 1.437
356.20 1.436
356.30 1.435
356.40 1.434
356.50 1.433
356.60 1.432
356.70 1.431
356.80 1.43
356.90 1.429
357.00 1.428
357.10 1.427
357.20 1.426
357.30 1.425
357.40 1.424
357.50 1.424
357.60 1.423
357.70 1.422
357.80 1.421
357.90 1.42
358.00 1.419
358.10 1.418
358.20 1.417
358.30 1.416
358.40 1.415
358.50 1.414
358.60 1.413
358.70 1.412
358.80 1.411
358.90 1.41
359.00 1.409
359.10 1.408
359.20 1.408
359.30 1.407
359.40 1.406
359.50 1.405
359.60 1.404
359.70 1.403
359.80 1.402
359.90 1.401
360.00 1.4
360.10 1.399
360.20 1.398
360.30 1.397
360.40 1.396
360.50 1.395
360.60 1.395
360.70 1.394
360.80 1.393
360.90 1.392
361.00 1.391
361.10 1.39
361.20 1.389
361.30 1.388
361.40 1.387
361.50 1.386
361.60 1.385
361.70 1.384
361.80 1.384
361.90 1.383
362.00 1.382
362.10 1.381
362.20 1.38
362.30 1.379
362.40 1.378
362.50 1.377
362.60 1.376
362.70 1.375
362.80 1.374
362.90 1.374
363.00 1.373
363.10 1.372
363.20 1.371
363.30 1.37
363.40 1.369
363.50 1.368
363.60 1.367
363.70 1.366
363.80 1.365
363.90 1.364
364.00 1.363
364.10 1.362
364.20 1.361
364.30 1.361
364.40 1.36
364.50 1.359
364.60 1.358
364.70 1.357
364.80 1.356
364.90 1.355
365.00 1.354
365.10 1.353
365.20 1.352
365.30 1.351
365.40 1.351
365.50 1.35
365.60 1.349
365.70 1.348
365.80 1.347
365.90 1.346
366.00 1.345
366.10 1.344
366.20 1.344
366.30 1.343
366.40 1.342
366.50 1.341
366.60 1.34
366.70 1.339
366.80 1.339
366.90 1.338
367.00 1.337
367.10 1.336
367.20 1.335
367.30 1.334
367.40 1.334
367.50 1.333
367.60 1.332
367.70 1.331
367.80 1.33
367.90 1.329
368.00 1.329
368.10 1.328
368.20 1.328
368.30 1.328
368.40 1.328
368.50 1.328
368.60 1.328
368.70 1.328
368.80 1.328
368.90 1.328
369.00 1.328
369.10 1.328
369.20 1.328
369.30 1.327
369.40 1.327
369.50 1.327
369.60 1.327
369.70 1.327
369.80 1.327
369.90 1.327
370.00 1.327
370.10 1.328
370.20 1.33
370.30 1.332
370.40 1.333
370.50 1.335
370.60 1.337
370.70 1.338
370.80 1.34
370.90 1.342
371.00 1.343
371.10 1.345
371.20 1.346
371.30 1.348
371.40 1.35
371.50 1.351
371.60 1.353
371.70 1.354
371.80 1.356
371.90 1.358
372.00 1.359
372.10 1.363
372.20 1.366
372.30 1.37
372.40 1.373
372.50 1.377
372.60 1.38
372.70 1.384
372.80 1.387
372.90 1.39
373.00 1.394
373.10 1.397
373.20 1.401
373.30 1.404
373.40 1.408
373.50 1.411
373.60 1.415
373.70 1.418
373.80 1.421
373.90 1.425
374.00 1.428
374.10 1.432
374.20 1.436
374.30 1.44
374.40 1.444
374.50 1.448
374.60 1.452
374.70 1.456
374.80 1.46
374.90 1.464
375.00 1.468
375.10 1.471
375.20 1.475
375.30 1.479
375.40 1.483
375.50 1.487
375.60 1.491
375.70 1.495
375.80 1.499
375.90 1.503
376.00 1.507
376.10 1.509
376.20 1.51
376.30 1.512
376.40 1.514
376.50 1.516
376.60 1.518
376.70 1.52
376.80 1.522
376.90 1.524
377.00 1.526
377.10 1.523
377.20 1.519
377.30 1.516
377.40 1.512
377.50 1.509
377.60 1.505
377.70 1.502
377.80 1.498
377.90 1.495
378.00 1.491
378.10 1.472
378.20 1.453
378.30 1.434
378.40 1.415
378.50 1.396
378.60 1.376
378.70 1.357
378.80 1.338
378.90 1.319
379.00 1.3
379.10 1.285
379.20 1.271
379.30 1.256
379.40 1.241
379.50 1.226
379.60 1.212
379.70 1.197
379.80 1.182
379.90 1.168
380.00 1.153
380.10 1.176
380.20 1.2
380.30 1.223
380.40 1.246
380.50 1.27
380.60 1.293
380.70 1.316
380.80 1.34
380.90 1.363
381.00 1.386
381.10 1.396
381.20 1.406
381.30 1.416
381.40 1.426
381.50 1.436
381.60 1.436
381.70 1.433
381.80 1.428
381.90 1.419
382.00 1.407
382.10 1.392
382.20 1.373
382.30 1.34
382.40 1.307
382.50 1.274
382.60 1.242
382.70 1.209
382.80 1.176
382.90 1.144
383.00 1.111
383.10 1.079
383.20 1.046
383.30 1.014
383.40 0.9796
383.50 0.9426
383.60 0.9502
383.70 0.9867
383.80 1.02
383.90 1.052
384.00 1.084
384.10 1.12
384.20 1.158
384.30 1.197
384.40 1.236
384.50 1.274
384.60 1.309
384.70 1.342
384.80 1.372
384.90 1.399
385.00 1.423
385.10 1.444
385.20 1.463
385.30 1.479
385.40 1.492
385.50 1.504
385.60 1.514
385.70 1.521
385.80 1.527
385.90 1.532
386.00 1.533
386.10 1.534
386.20 1.533
386.30 1.529
386.40 1.525
386.50 1.518
386.60 1.51
386.70 1.5
386.80 1.488
386.90 1.474
387.00 1.459
387.10 1.442
387.20 1.422
387.30 1.4
387.40 1.377
387.50 1.35
387.60 1.321
387.70 1.29
387.80 1.254
387.90 1.216
388.00 1.177
388.10 1.134
388.20 1.09
388.30 1.046
388.40 1.003
388.50 0.9618
388.60 0.9224
388.70 0.8823
388.80 0.8411
388.90 0.799
389.00 0.8376
389.10 0.8768
389.20 0.9165
389.30 0.9549
389.40 0.9951
389.50 1.037
389.60 1.08
389.70 1.124
389.80 1.166
389.90 1.207
390.00 1.245
390.10 1.281
390.20 1.314
390.30 1.345
390.40 1.374
390.50 1.4
390.60 1.425
390.70 1.448
390.80 1.47
390.90 1.49
391.00 1.509
391.10 1.527
391.20 1.544
391.30 1.56
391.40 1.574
391.50 1.588
391.60 1.601
391.70 1.613
391.80 1.623
391.90 1.633
392.00 1.642
392.10 1.649
392.20 1.656
392.30 1.662
392.40 1.667
392.50 1.671
392.60 1.673
392.70 1.675
392.80 1.676
392.90 1.675
393.00 1.674
393.10 1.672
393.20 1.668
393.30 1.663
393.40 1.658
393.50 1.651
393.60 1.644
393.70 1.635
393.80 1.625
393.90 1.614
394.00 1.602
394.10 1.589
394.20 1.575
394.30 1.56
394.40 1.543
394.50 1.526
394.60 1.508
394.70 1.488
394.80 1.468
394.90 1.447
395.00 1.424
395.10 1.401
395.20 1.377
395.30 1.351
395.40 1.324
395.50 1.296
395.60 1.266
395.70 1.235
395.80 1.203
395.90 1.168
396.00 1.132
396.10 1.094
396.20 1.054
396.30 1.012
396.40 0.9699
396.50 0.9271
396.60 0.8853
396.70 0.8445
396.80 0.8017
396.90 0.7493
397.00 0.6875
397.10 0.7443
397.20 0.7941
397.30 0.8369
397.40 0.8767
397.50 0.9174
397.60 0.9591
397.70 1.001
397.80 1.041
397.90 1.08
398.00 1.117
398.10 1.152
398.20 1.186
398.30 1.217
398.40 1.248
398.50 1.277
398.60 1.304
398.70 1.33
398.80 1.355
398.90 1.379
399.00 1.402
399.10 1.424
399.20 1.445
399.30 1.466
399.40 1.486
399.50 1.505
399.60 1.523
399.70 1.541
399.80 1.557
399.90 1.573
400.00 1.589
400.10 1.603
400.20 1.617
400.30 1.631
400.40 1.643
400.50 1.655
400.60 1.666
400.70 1.676
400.80 1.686
400.90 1.696
401.00 1.704
401.10 1.713
401.20 1.72
401.30 1.728
401.40 1.734
401.50 1.741
401.60 1.746
401.70 1.752
401.80 1.757
401.90 1.761
402.00 1.765
402.10 1.769
402.20 1.772
402.30 1.775
402.40 1.777
402.50 1.779
402.60 1.781
402.70 1.783
402.80 1.784
402.90 1.785
403.00 1.785
403.10 1.786
403.20 1.786
403.30 1.785
403.40 1.785
403.50 1.784
403.60 1.783
403.70 1.781
403.80 1.779
403.90 1.777
404.00 1.775
404.10 1.772
404.20 1.769
404.30 1.766
404.40 1.762
404.50 1.758
404.60 1.754
404.70 1.75
404.80 1.745
404.90 1.74
405.00 1.734
405.10 1.728
405.20 1.722
405.30 1.715
405.40 1.708
405.50 1.7
405.60 1.692
405.70 1.684
405.80 1.675
405.90 1.666
406.00 1.656
406.10 1.646
406.20 1.635
406.30 1.624
406.40 1.612
406.50 1.6
406.60 1.587
406.70 1.573
406.80 1.559
406.90 1.545
407.00 1.529
407.10 1.513
407.20 1.496
407.30 1.478
407.40 1.459
407.50 1.44
407.60 1.42
407.70 1.4
407.80 1.379
407.90 1.357
408.00 1.334
408.10 1.311
408.20 1.287
408.30 1.263
408.40 1.238
408.50 1.212
408.60 1.186
408.70 1.16
408.80 1.132
408.90 1.104
409.00 1.075
409.10 1.045
409.20 1.014
409.30 0.9819
409.40 0.9476
409.50 0.9122
409.60 0.8756
409.70 0.8381
409.80 0.8007
409.90 0.7634
410.00 0.718
410.10 0.6678
410.20 0.6128
410.30 0.6857
410.40 0.7419
410.50 0.7816
410.60 0.818
410.70 0.8545
410.80 0.8909
410.90 0.9256
411.00 0.959
411.10 0.9911
411.20 1.021
411.30 1.05
411.40 1.078
411.50 1.105
411.60 1.131
411.70 1.157
411.80 1.181
411.90 1.205
412.00 1.229
412.10 1.251
412.20 1.274
412.30 1.295
412.40 1.316
412.50 1.336
412.60 1.356
412.70 1.375
412.80 1.393
412.90 1.411
413.00 1.428
413.10 1.444
413.20 1.459
413.30 1.474
413.40 1.487
413.50 1.501
413.60 1.513
413.70 1.525
413.80 1.537
413.90 1.547
414.00 1.558
414.10 1.568
414.20 1.577
414.30 1.586
414.40 1.594
414.50 1.602
414.60 1.61
414.70 1.617
414.80 1.624
414.90 1.63
415.00 1.636
415.10 1.642
415.20 1.647
415.30 1.653
415.40 1.658
415.50 1.662
415.60 1.666
415.70 1.67
415.80 1.674
415.90 1.678
416.00 1.681
416.10 1.684
416.20 1.687
416.30 1.69
416.40 1.693
416.50 1.695
416.60 1.697
416.70 1.7
416.80 1.702
416.90 1.703
417.00 1.705
417.10 1.707
417.20 1.708
417.30 1.71
417.40 1.711
417.50 1.712
417.60 1.713
417.70 1.714
417.80 1.715
417.90 1.716
418.00 1.716
418.10 1.717
418.20 1.717
418.30 1.718
418.40 1.718
418.50 1.718
418.60 1.718
418.70 1.719
418.80 1.719
418.90 1.719
419.00 1.719
419.10 1.719
419.20 1.718
419.30 1.718
419.40 1.718
419.50 1.718
419.60 1.717
419.70 1.717
419.80 1.717
419.90 1.716
420.00 1.716
420.10 1.715
420.20 1.714
420.30 1.714
420.40 1.713
420.50 1.712
420.60 1.712
420.70 1.711
420.80 1.71
420.90 1.709
421.00 1.708
421.10 1.708
421.20 1.707
421.30 1.706
421.40 1.705
421.50 1.704
421.60 1.703
421.70 1.701
421.80 1.7
421.90 1.699
422.00 1.698
422.10 1.697
422.20 1.696
422.30 1.694
422.40 1.693
422.50 1.692
422.60 1.69
422.70 1.689
422.80 1.688
422.90 1.686
423.00 1.685
423.10 1.683
423.20 1.682
423.30 1.68
423.40 1.678
423.50 1.677
423.60 1.675
423.70 1.673
423.80 1.672
423.90 1.67
424.00 1.668
424.10 1.666
424.20 1.664
424.30 1.662
424.40 1.66
424.50 1.658
424.60 1.656
424.70 1.654
424.80 1.652
424.90 1.65
425.00 1.647
425.10 1.645
425.20 1.643
425.30 1.64
425.40 1.638
425.50 1.635
425.60 1.632
425.70 1.63
425.80 1.627
425.90 1.624
426.00 1.621
426.10 1.618
426.20 1.615
426.30 1.611
426.40 1.608
426.50 1.605
426.60 1.601
426.70 1.598
426.80 1.594
426.90 1.591
427.00 1.587
427.10 1.583
427.20 1.579
427.30 1.575
427.40 1.571
427.50 1.566
427.60 1.562
427.70 1.557
427.80 1.552
427.90 1.547
428.00 1.542
428.10 1.537
428.20 1.532
428.30 1.526
428.40 1.521
428.50 1.515
428.60 1.509
428.70 1.502
428.80 1.496
428.90 1.489
429.00 1.482
429.10 1.475
429.20 1.468
429.30 1.46
429.40 1.452
429.50 1.444
429.60 1.435
429.70 1.427
429.80 1.417
429.90 1.408
430.00 1.398
430.10 1.388
430.20 1.378
430.30 1.367
430.40 1.356
430.50 1.345
430.60 1.333
430.70 1.321
430.80 1.308
430.90 1.295
431.00 1.282
431.10 1.268
431.20 1.254
431.30 1.24
431.40 1.225
431.50 1.21
431.60 1.193
431.70 1.177
431.80 1.16
431.90 1.142
432.00 1.123
432.10 1.104
432.20 1.083
432.30 1.062
432.40 1.04
432.50 1.017
432.60 0.9925
432.70 0.9674
432.80 0.9418
432.90 0.9164
433.00 0.8914
433.10 0.8673
433.20 0.8429
433.30 0.8181
433.40 0.7911
433.50 0.7629
433.60 0.7337
433.70 0.7025
433.80 0.6683
433.90 0.631
434.00 0.5411
434.10 0.5421
434.20 0.634
434.30 0.6698
434.40 0.7029
434.50 0.7333
434.60 0.7616
434.70 0.7887
434.80 0.8147
434.90 0.8383
435.00 0.8617
435.10 0.8846
435.20 0.9085
435.30 0.9326
435.40 0.9568
435.50 0.9803
435.60 1.003
435.70 1.025
435.80 1.045
435.90 1.065
436.00 1.083
436.10 1.101
436.20 1.117
436.30 1.134
436.40 1.149
436.50 1.163
436.60 1.177
436.70 1.191
436.80 1.203
436.90 1.216
437.00 1.228
437.10 1.239
437.20 1.25
437.30 1.261
437.40 1.271
437.50 1.281
437.60 1.29
437.70 1.299
437.80 1.308
437.90 1.316
438.00 1.324
438.10 1.332
438.20 1.339
438.30 1.346
438.40 1.353
438.50 1.359
438.60 1.365
438.70 1.371
438.80 1.376
438.90 1.382
439.00 1.387
439.10 1.391
439.20 1.396
439.30 1.4
439.40 1.404
439.50 1.408
439.60 1.411
439.70 1.415
439.80 1.418
439.90 1.421
440.00 1.424
440.10 1.427
440.20 1.429
440.30 1.432
440.40 1.434
440.50 1.436
440.60 1.438
440.70 1.44
440.80 1.442
440.90 1.443
441.00 1.445
441.10 1.446
441.20 1.448
441.30 1.449
441.40 1.45
441.50 1.451
441.60 1.452
441.70 1.453
441.80 1.454
441.90 1.455
442.00 1.456
442.10 1.456
442.20 1.457
442.30 1.457
442.40 1.458
442.50 1.458
442.60 1.458
442.70 1.459
442.80 1.459
442.90 1.459
443.00 1.459
443.10 1.459
443.20 1.459
443.30 1.459
443.40 1.459
443.50 1.459
443.60 1.459
443.70 1.459
443.80 1.459
443.90 1.459
444.00 1.458
444.10 1.458
444.20 1.458
444.30 1.457
444.40 1.457
444.50 1.457
444.60 1.456
444.70 1.456
444.80 1.455
444.90 1.455
445.00 1.454
445.10 1.454
445.20 1.453
445.30 1.453
445.40 1.452
445.50 1.452
445.60 1.451
445.70 1.451
445.80 1.45
445.90 1.449
446.00 1.449
446.10 1.448
446.20 1.447
446.30 1.447
446.40 1.446
446.50 1.445
446.60 1.445
446.70 1.444
446.80 1.443
446.90 1.442
447.00 1.442
447.10 1.441
447.20 1.44
447.30 1.439
447.40 1.439
447.50 1.438
447.60 1.437
447.70 1.436
447.80 1.435
447.90 1.435
448.00 1.434
448.10 1.433
448.20 1.432
448.30 1.431
448.40 1.43
448.50 1.43
448.60 1.429
448.70 1.428
448.80 1.427
448.90 1.426
449.00 1.426
449.10 1.425
449.20 1.424
449.30 1.423
449.40 1.422
449.50 1.421
449.60 1.42
449.70 1.42
449.80 1.419
449.90 1.418
450.00 1.417
450.10 1.416
450.20 1.415
450.30 1.414
450.40 1.413
450.50 1.412
450.60 1.411
450.70 1.411
450.80 1.41
450.90 1.409
451.00 1.408
451.10 1.407
451.20 1.406
451.30 1.405
451.40 1.404
451.50 1.403
451.60 1.402
451.70 1.402
451.80 1.401
451.90 1.4
452.00 1.399
452.10 1.398
452.20 1.397
452.30 1.396
452.40 1.395
452.50 1.394
452.60 1.393
452.70 1.392
452.80 1.391
452.90 1.39
453.00 1.39
453.10 1.389
453.20 1.388
453.30 1.387
453.40 1.386
453.50 1.385
453.60 1.384
