# Version 2.1 - nm, norm@500 to 1, cut digits, bergeron_4000_80.dat_4000
# Wavelength(nm)  Flambda(ergs/cm^s/s/nm)
300.00 0.1796
300.10 0.18
300.20 0.1803
300.30 0.1806
300.40 0.181
300.50 0.1813
300.60 0.1816
300.70 0.182
300.80 0.1823
300.90 0.1826
301.00 0.183
301.10 0.1833
301.20 0.1836
301.30 0.184
301.40 0.1843
301.50 0.1846
301.60 0.185
301.70 0.1853
301.80 0.1856
301.90 0.186
302.00 0.1863
302.10 0.1866
302.20 0.187
302.30 0.1873
302.40 0.1877
302.50 0.188
302.60 0.1884
302.70 0.1887
302.80 0.189
302.90 0.1894
303.00 0.1897
303.10 0.1901
303.20 0.1904
303.30 0.1907
303.40 0.1911
303.50 0.1914
303.60 0.1918
303.70 0.1921
303.80 0.1924
303.90 0.1928
304.00 0.1931
304.10 0.1934
304.20 0.1938
304.30 0.1941
304.40 0.1945
304.50 0.1948
304.60 0.1952
304.70 0.1955
304.80 0.1959
304.90 0.1962
305.00 0.1966
305.10 0.1969
305.20 0.1973
305.30 0.1976
305.40 0.198
305.50 0.1983
305.60 0.1986
305.70 0.199
305.80 0.1993
305.90 0.1997
306.00 0.2
306.10 0.2004
306.20 0.2007
306.30 0.2011
306.40 0.2014
306.50 0.2018
306.60 0.2021
306.70 0.2025
306.80 0.2028
306.90 0.2032
307.00 0.2035
307.10 0.2039
307.20 0.2042
307.30 0.2046
307.40 0.2049
307.50 0.2053
307.60 0.2056
307.70 0.206
307.80 0.2063
307.90 0.2067
308.00 0.207
308.10 0.2074
308.20 0.2078
308.30 0.2081
308.40 0.2085
308.50 0.2088
308.60 0.2092
308.70 0.2096
308.80 0.2099
308.90 0.2103
309.00 0.2106
309.10 0.211
309.20 0.2113
309.30 0.2117
309.40 0.2121
309.50 0.2124
309.60 0.2128
309.70 0.2131
309.80 0.2135
309.90 0.2138
310.00 0.2142
310.10 0.2145
310.20 0.2149
310.30 0.2153
310.40 0.2156
310.50 0.216
310.60 0.2164
310.70 0.2167
310.80 0.2171
310.90 0.2175
311.00 0.2178
311.10 0.2182
311.20 0.2186
311.30 0.2189
311.40 0.2193
311.50 0.2196
311.60 0.22
311.70 0.2204
311.80 0.2207
311.90 0.2211
312.00 0.2214
312.10 0.2218
312.20 0.2222
312.30 0.2225
312.40 0.2229
312.50 0.2233
312.60 0.2236
312.70 0.224
312.80 0.2244
312.90 0.2247
313.00 0.2251
313.10 0.2255
313.20 0.2258
313.30 0.2262
313.40 0.2266
313.50 0.2269
313.60 0.2273
313.70 0.2277
313.80 0.228
313.90 0.2284
314.00 0.2288
314.10 0.2291
314.20 0.2295
314.30 0.2299
314.40 0.2303
314.50 0.2306
314.60 0.231
314.70 0.2314
314.80 0.2318
314.90 0.2321
315.00 0.2325
315.10 0.2329
315.20 0.2333
315.30 0.2336
315.40 0.234
315.50 0.2344
315.60 0.2347
315.70 0.2351
315.80 0.2355
315.90 0.2359
316.00 0.2362
316.10 0.2366
316.20 0.237
316.30 0.2374
316.40 0.2377
316.50 0.2381
316.60 0.2385
316.70 0.2389
316.80 0.2393
316.90 0.2396
317.00 0.24
317.10 0.2404
317.20 0.2408
317.30 0.2412
317.40 0.2415
317.50 0.2419
317.60 0.2423
317.70 0.2427
317.80 0.243
317.90 0.2434
318.00 0.2438
318.10 0.2442
318.20 0.2445
318.30 0.2449
318.40 0.2453
318.50 0.2457
318.60 0.2461
318.70 0.2465
318.80 0.2469
318.90 0.2472
319.00 0.2476
319.10 0.248
319.20 0.2484
319.30 0.2488
319.40 0.2492
319.50 0.2495
319.60 0.2499
319.70 0.2503
319.80 0.2507
319.90 0.251
320.00 0.2514
320.10 0.2518
320.20 0.2522
320.30 0.2526
320.40 0.253
320.50 0.2534
320.60 0.2538
320.70 0.2542
320.80 0.2545
320.90 0.2549
321.00 0.2553
321.10 0.2557
321.20 0.2561
321.30 0.2565
321.40 0.2569
321.50 0.2573
321.60 0.2576
321.70 0.258
321.80 0.2584
321.90 0.2588
322.00 0.2592
322.10 0.2596
322.20 0.26
322.30 0.2604
322.40 0.2608
322.50 0.2612
322.60 0.2615
322.70 0.2619
322.80 0.2623
322.90 0.2627
323.00 0.2631
323.10 0.2635
323.20 0.2639
323.30 0.2643
323.40 0.2647
323.50 0.2651
323.60 0.2655
323.70 0.2658
323.80 0.2662
323.90 0.2666
324.00 0.267
324.10 0.2674
324.20 0.2678
324.30 0.2682
324.40 0.2686
324.50 0.269
324.60 0.2694
324.70 0.2698
324.80 0.2702
324.90 0.2706
325.00 0.271
325.10 0.2714
325.20 0.2718
325.30 0.2722
325.40 0.2726
325.50 0.273
325.60 0.2734
325.70 0.2738
325.80 0.2742
325.90 0.2746
326.00 0.275
326.10 0.2754
326.20 0.2758
326.30 0.2762
326.40 0.2766
326.50 0.277
326.60 0.2774
326.70 0.2778
326.80 0.2782
326.90 0.2786
327.00 0.279
327.10 0.2794
327.20 0.2798
327.30 0.2802
327.40 0.2806
327.50 0.281
327.60 0.2814
327.70 0.2818
327.80 0.2822
327.90 0.2826
328.00 0.283
328.10 0.2834
328.20 0.2838
328.30 0.2842
328.40 0.2846
328.50 0.285
328.60 0.2854
328.70 0.2858
328.80 0.2862
328.90 0.2866
329.00 0.287
329.10 0.2874
329.20 0.2878
329.30 0.2882
329.40 0.2887
329.50 0.2891
329.60 0.2895
329.70 0.2899
329.80 0.2903
329.90 0.2907
330.00 0.2911
330.10 0.2915
330.20 0.2919
330.30 0.2923
330.40 0.2927
330.50 0.2931
330.60 0.2935
330.70 0.2939
330.80 0.2944
330.90 0.2948
331.00 0.2952
331.10 0.2956
331.20 0.296
331.30 0.2964
331.40 0.2968
331.50 0.2972
331.60 0.2976
331.70 0.298
331.80 0.2984
331.90 0.2988
332.00 0.2992
332.10 0.2997
332.20 0.3001
332.30 0.3005
332.40 0.3009
332.50 0.3013
332.60 0.3017
332.70 0.3022
332.80 0.3026
332.90 0.303
333.00 0.3034
333.10 0.3038
333.20 0.3042
333.30 0.3046
333.40 0.305
333.50 0.3055
333.60 0.3059
333.70 0.3063
333.80 0.3067
333.90 0.3071
334.00 0.3075
334.10 0.3079
334.20 0.3083
334.30 0.3088
334.40 0.3092
334.50 0.3096
334.60 0.31
334.70 0.3104
334.80 0.3109
334.90 0.3113
335.00 0.3117
335.10 0.3121
335.20 0.3125
335.30 0.3129
335.40 0.3134
335.50 0.3138
335.60 0.3142
335.70 0.3146
335.80 0.315
335.90 0.3154
336.00 0.3158
336.10 0.3163
336.20 0.3167
336.30 0.3171
336.40 0.3175
336.50 0.318
336.60 0.3184
336.70 0.3188
336.80 0.3192
336.90 0.3196
337.00 0.3201
337.10 0.3205
337.20 0.3209
337.30 0.3213
337.40 0.3217
337.50 0.3222
337.60 0.3226
337.70 0.323
337.80 0.3234
337.90 0.3238
338.00 0.3242
338.10 0.3247
338.20 0.3251
338.30 0.3255
338.40 0.326
338.50 0.3264
338.60 0.3268
338.70 0.3272
338.80 0.3277
338.90 0.3281
339.00 0.3285
339.10 0.3289
339.20 0.3294
339.30 0.3298
339.40 0.3302
339.50 0.3306
339.60 0.331
339.70 0.3315
339.80 0.3319
339.90 0.3323
340.00 0.3327
340.10 0.3332
340.20 0.3336
340.30 0.334
340.40 0.3344
340.50 0.3349
340.60 0.3353
340.70 0.3357
340.80 0.3362
340.90 0.3366
341.00 0.337
341.10 0.3374
341.20 0.3379
341.30 0.3383
341.40 0.3387
341.50 0.3391
341.60 0.3396
341.70 0.34
341.80 0.3404
341.90 0.3408
342.00 0.3413
342.10 0.3417
342.20 0.3421
342.30 0.3426
342.40 0.343
342.50 0.3434
342.60 0.3439
342.70 0.3443
342.80 0.3447
342.90 0.3452
343.00 0.3456
343.10 0.346
343.20 0.3465
343.30 0.3469
343.40 0.3473
343.50 0.3477
343.60 0.3482
343.70 0.3486
343.80 0.349
343.90 0.3494
344.00 0.3499
344.10 0.3503
344.20 0.3507
344.30 0.3512
344.40 0.3516
344.50 0.3521
344.60 0.3525
344.70 0.3529
344.80 0.3534
344.90 0.3538
345.00 0.3542
345.10 0.3547
345.20 0.3551
345.30 0.3555
345.40 0.3559
345.50 0.3564
345.60 0.3568
345.70 0.3572
345.80 0.3577
345.90 0.3581
346.00 0.3585
346.10 0.359
346.20 0.3594
346.30 0.3598
346.40 0.3603
346.50 0.3607
346.60 0.3612
346.70 0.3616
346.80 0.362
346.90 0.3625
347.00 0.3629
347.10 0.3634
347.20 0.3638
347.30 0.3642
347.40 0.3647
347.50 0.3651
347.60 0.3655
347.70 0.366
347.80 0.3664
347.90 0.3668
348.00 0.3673
348.10 0.3677
348.20 0.3681
348.30 0.3686
348.40 0.369
348.50 0.3695
348.60 0.3699
348.70 0.3704
348.80 0.3708
348.90 0.3712
349.00 0.3717
349.10 0.3721
349.20 0.3725
349.30 0.373
349.40 0.3734
349.50 0.3738
349.60 0.3743
349.70 0.3747
349.80 0.3752
349.90 0.3756
350.00 0.376
350.10 0.3765
350.20 0.3769
350.30 0.3774
350.40 0.3778
350.50 0.3782
350.60 0.3787
350.70 0.3791
350.80 0.3796
350.90 0.38
351.00 0.3805
351.10 0.3809
351.20 0.3813
351.30 0.3818
351.40 0.3822
351.50 0.3827
351.60 0.3831
351.70 0.3835
351.80 0.384
351.90 0.3844
352.00 0.3849
352.10 0.3853
352.20 0.3858
352.30 0.3862
352.40 0.3866
352.50 0.3871
352.60 0.3875
352.70 0.388
352.80 0.3884
352.90 0.3889
353.00 0.3893
353.10 0.3898
353.20 0.3902
353.30 0.3906
353.40 0.3911
353.50 0.3915
353.60 0.392
353.70 0.3924
353.80 0.3928
353.90 0.3933
354.00 0.3937
354.10 0.3942
354.20 0.3946
354.30 0.3951
354.40 0.3955
354.50 0.396
354.60 0.3964
354.70 0.3969
354.80 0.3973
354.90 0.3978
355.00 0.3982
355.10 0.3987
355.20 0.3991
355.30 0.3995
355.40 0.4
355.50 0.4004
355.60 0.4009
355.70 0.4013
355.80 0.4018
355.90 0.4022
356.00 0.4026
356.10 0.4031
356.20 0.4035
356.30 0.404
356.40 0.4045
356.50 0.4049
356.60 0.4054
356.70 0.4058
356.80 0.4063
356.90 0.4067
357.00 0.4072
357.10 0.4076
357.20 0.408
357.30 0.4085
357.40 0.4089
357.50 0.4094
357.60 0.4098
357.70 0.4103
357.80 0.4107
357.90 0.4112
358.00 0.4116
358.10 0.4121
358.20 0.4125
358.30 0.413
358.40 0.4134
358.50 0.4139
358.60 0.4143
358.70 0.4148
358.80 0.4152
358.90 0.4157
359.00 0.4161
359.10 0.4166
359.20 0.417
359.30 0.4175
359.40 0.4179
359.50 0.4184
359.60 0.4188
359.70 0.4193
359.80 0.4197
359.90 0.4202
360.00 0.4206
360.10 0.4211
360.20 0.4215
360.30 0.422
360.40 0.4224
360.50 0.4229
360.60 0.4233
360.70 0.4238
360.80 0.4243
360.90 0.4247
361.00 0.4252
361.10 0.4256
361.20 0.4261
361.30 0.4265
361.40 0.427
361.50 0.4274
361.60 0.4279
361.70 0.4283
361.80 0.4288
361.90 0.4292
362.00 0.4296
362.10 0.4301
362.20 0.4306
362.30 0.431
362.40 0.4315
362.50 0.4319
362.60 0.4324
362.70 0.4328
362.80 0.4333
362.90 0.4337
363.00 0.4342
363.10 0.4346
363.20 0.4351
363.30 0.4355
363.40 0.436
363.50 0.4365
363.60 0.4369
363.70 0.4374
363.80 0.4378
363.90 0.4383
364.00 0.4387
364.10 0.4392
364.20 0.4396
364.30 0.4401
364.40 0.4405
364.50 0.441
364.60 0.4414
364.70 0.4419
364.80 0.4424
364.90 0.4428
365.00 0.4433
365.10 0.4437
365.20 0.4442
365.30 0.4446
365.40 0.4451
365.50 0.4456
365.60 0.446
365.70 0.4465
365.80 0.4469
365.90 0.4474
366.00 0.4478
366.10 0.4483
366.20 0.4487
366.30 0.4492
366.40 0.4497
366.50 0.4501
366.60 0.4506
366.70 0.451
366.80 0.4515
366.90 0.4519
367.00 0.4524
367.10 0.4529
367.20 0.4533
367.30 0.4538
367.40 0.4542
367.50 0.4547
367.60 0.4551
367.70 0.4556
367.80 0.456
367.90 0.4565
368.00 0.4569
368.10 0.4574
368.20 0.4579
368.30 0.4583
368.40 0.4588
368.50 0.4592
368.60 0.4597
368.70 0.4602
368.80 0.4606
368.90 0.4611
369.00 0.4615
369.10 0.462
369.20 0.4624
369.30 0.4629
369.40 0.4634
369.50 0.4638
369.60 0.4643
369.70 0.4647
369.80 0.4652
369.90 0.4656
370.00 0.4661
370.10 0.4665
370.20 0.467
370.30 0.4675
370.40 0.4679
370.50 0.4684
370.60 0.4689
370.70 0.4693
370.80 0.4698
370.90 0.4702
371.00 0.4707
371.10 0.4712
371.20 0.4716
371.30 0.4721
371.40 0.4725
371.50 0.473
371.60 0.4734
371.70 0.4739
371.80 0.4743
371.90 0.4748
372.00 0.4753
372.10 0.4757
372.20 0.4762
372.30 0.4767
372.40 0.4771
372.50 0.4776
372.60 0.478
372.70 0.4785
372.80 0.479
372.90 0.4794
373.00 0.4799
373.10 0.4803
373.20 0.4808
373.30 0.4813
373.40 0.4817
373.50 0.4822
373.60 0.4826
373.70 0.4831
373.80 0.4835
373.90 0.484
374.00 0.4845
374.10 0.4849
374.20 0.4854
374.30 0.4859
374.40 0.4863
374.50 0.4868
374.60 0.4872
374.70 0.4877
374.80 0.4882
374.90 0.4886
375.00 0.4891
375.10 0.4895
375.20 0.49
375.30 0.4905
375.40 0.4909
375.50 0.4914
375.60 0.4918
375.70 0.4923
375.80 0.4928
375.90 0.4932
376.00 0.4937
376.10 0.4941
376.20 0.4946
376.30 0.495
376.40 0.4955
376.50 0.496
376.60 0.4964
376.70 0.4969
376.80 0.4973
376.90 0.4978
377.00 0.4983
377.10 0.4987
377.20 0.4992
377.30 0.4996
377.40 0.5001
377.50 0.5006
377.60 0.501
377.70 0.5015
377.80 0.5019
377.90 0.5024
378.00 0.5029
378.10 0.5033
378.20 0.5038
378.30 0.5043
378.40 0.5047
378.50 0.5052
378.60 0.5056
378.70 0.5061
378.80 0.5066
378.90 0.507
379.00 0.5075
379.10 0.5079
379.20 0.5084
379.30 0.5089
379.40 0.5093
379.50 0.5098
379.60 0.5103
379.70 0.5107
379.80 0.5112
379.90 0.5116
380.00 0.5121
380.10 0.5126
380.20 0.513
380.30 0.5135
380.40 0.5139
380.50 0.5144
380.60 0.5149
380.70 0.5153
380.80 0.5158
380.90 0.5162
381.00 0.5167
381.10 0.5172
381.20 0.5176
381.30 0.5181
381.40 0.5186
381.50 0.519
381.60 0.5195
381.70 0.5199
381.80 0.5204
381.90 0.5209
382.00 0.5213
382.10 0.5218
382.20 0.5223
382.30 0.5227
382.40 0.5232
382.50 0.5236
382.60 0.5241
382.70 0.5246
382.80 0.525
382.90 0.5255
383.00 0.5259
383.10 0.5264
383.20 0.5269
383.30 0.5273
383.40 0.5278
383.50 0.5282
383.60 0.5287
383.70 0.5292
383.80 0.5296
383.90 0.5301
384.00 0.5306
384.10 0.531
384.20 0.5315
384.30 0.5319
384.40 0.5324
384.50 0.5329
384.60 0.5333
384.70 0.5338
384.80 0.5342
384.90 0.5347
385.00 0.5352
385.10 0.5356
385.20 0.5361
385.30 0.5366
385.40 0.537
385.50 0.5375
385.60 0.5379
385.70 0.5384
385.80 0.5389
385.90 0.5393
386.00 0.5398
386.10 0.5402
386.20 0.5407
386.30 0.5412
386.40 0.5416
386.50 0.5421
386.60 0.5426
386.70 0.543
386.80 0.5435
386.90 0.5439
387.00 0.5444
387.10 0.5449
387.20 0.5453
387.30 0.5458
387.40 0.5463
387.50 0.5467
387.60 0.5472
387.70 0.5476
387.80 0.5481
387.90 0.5486
388.00 0.549
388.10 0.5495
388.20 0.5499
388.30 0.5504
388.40 0.5509
388.50 0.5513
388.60 0.5518
388.70 0.5523
388.80 0.5527
388.90 0.5532
389.00 0.5536
389.10 0.5541
389.20 0.5546
389.30 0.555
389.40 0.5555
389.50 0.5559
389.60 0.5564
389.70 0.5569
389.80 0.5573
389.90 0.5578
390.00 0.5582
390.10 0.5587
390.20 0.5592
390.30 0.5596
390.40 0.5601
390.50 0.5606
390.60 0.561
390.70 0.5615
390.80 0.5619
390.90 0.5624
391.00 0.5629
391.10 0.5633
391.20 0.5638
391.30 0.5642
391.40 0.5647
391.50 0.5652
391.60 0.5656
391.70 0.5661
391.80 0.5665
391.90 0.567
392.00 0.5675
392.10 0.5679
392.20 0.5684
392.30 0.5688
392.40 0.5693
392.50 0.5698
392.60 0.5702
392.70 0.5707
392.80 0.5711
392.90 0.5716
393.00 0.5721
393.10 0.5725
393.20 0.573
393.30 0.5735
393.40 0.5739
393.50 0.5744
393.60 0.5748
393.70 0.5753
393.80 0.5758
393.90 0.5762
394.00 0.5767
394.10 0.5771
394.20 0.5776
394.30 0.5781
394.40 0.5785
394.50 0.579
394.60 0.5794
394.70 0.5799
394.80 0.5804
394.90 0.5808
395.00 0.5813
395.10 0.5817
395.20 0.5822
395.30 0.5827
395.40 0.5831
395.50 0.5836
395.60 0.584
395.70 0.5845
395.80 0.585
395.90 0.5854
396.00 0.5859
396.10 0.5863
396.20 0.5868
396.30 0.5873
396.40 0.5877
396.50 0.5882
396.60 0.5886
396.70 0.5891
396.80 0.5896
396.90 0.59
397.00 0.5905
397.10 0.5909
397.20 0.5914
397.30 0.5919
397.40 0.5923
397.50 0.5928
397.60 0.5932
397.70 0.5937
397.80 0.5941
397.90 0.5946
398.00 0.5951
398.10 0.5955
398.20 0.596
398.30 0.5964
398.40 0.5969
398.50 0.5974
398.60 0.5978
398.70 0.5983
398.80 0.5987
398.90 0.5992
399.00 0.5996
399.10 0.6001
399.20 0.6006
399.30 0.601
399.40 0.6015
399.50 0.6019
399.60 0.6024
399.70 0.6029
399.80 0.6033
399.90 0.6038
400.00 0.6042
400.10 0.6047
400.20 0.6051
400.30 0.6056
400.40 0.6061
400.50 0.6065
400.60 0.607
400.70 0.6074
400.80 0.6079
400.90 0.6083
401.00 0.6088
401.10 0.6093
401.20 0.6097
401.30 0.6102
401.40 0.6106
401.50 0.6111
401.60 0.6115
401.70 0.612
401.80 0.6125
401.90 0.6129
402.00 0.6134
402.10 0.6138
402.20 0.6143
402.30 0.6147
402.40 0.6152
402.50 0.6157
402.60 0.6161
402.70 0.6166
402.80 0.617
402.90 0.6175
403.00 0.6179
403.10 0.6184
403.20 0.6189
403.30 0.6193
403.40 0.6198
403.50 0.6202
403.60 0.6207
403.70 0.6211
403.80 0.6216
403.90 0.622
404.00 0.6225
404.10 0.623
404.20 0.6234
404.30 0.6239
404.40 0.6243
404.50 0.6248
404.60 0.6252
404.70 0.6257
404.80 0.6261
404.90 0.6266
405.00 0.6271
405.10 0.6275
405.20 0.628
405.30 0.6284
405.40 0.6289
405.50 0.6293
405.60 0.6298
405.70 0.6302
405.80 0.6307
405.90 0.6311
406.00 0.6316
406.10 0.6321
406.20 0.6325
406.30 0.633
406.40 0.6334
406.50 0.6339
406.60 0.6343
406.70 0.6348
406.80 0.6352
406.90 0.6357
407.00 0.6361
407.10 0.6366
407.20 0.6371
407.30 0.6375
407.40 0.638
407.50 0.6384
407.60 0.6389
407.70 0.6393
407.80 0.6398
407.90 0.6402
408.00 0.6407
408.10 0.6411
408.20 0.6416
408.30 0.642
408.40 0.6425
408.50 0.6429
408.60 0.6434
408.70 0.6438
408.80 0.6443
408.90 0.6447
409.00 0.6452
409.10 0.6456
409.20 0.6461
409.30 0.6466
409.40 0.647
409.50 0.6475
409.60 0.6479
409.70 0.6484
409.80 0.6488
409.90 0.6493
410.00 0.6497
410.10 0.6502
410.20 0.6506
410.30 0.6511
410.40 0.6515
410.50 0.652
410.60 0.6524
410.70 0.6529
410.80 0.6533
410.90 0.6538
411.00 0.6542
411.10 0.6547
411.20 0.6551
411.30 0.6556
411.40 0.656
411.50 0.6565
411.60 0.6569
411.70 0.6574
411.80 0.6578
411.90 0.6583
412.00 0.6587
412.10 0.6592
412.20 0.6596
412.30 0.6601
412.40 0.6605
412.50 0.661
412.60 0.6614
412.70 0.6619
412.80 0.6623
412.90 0.6628
413.00 0.6632
413.10 0.6637
413.20 0.6641
413.30 0.6646
413.40 0.665
413.50 0.6655
413.60 0.6659
413.70 0.6664
413.80 0.6668
413.90 0.6673
414.00 0.6677
414.10 0.6682
414.20 0.6686
414.30 0.6691
414.40 0.6695
414.50 0.67
414.60 0.6704
414.70 0.6709
414.80 0.6713
414.90 0.6717
415.00 0.6722
415.10 0.6726
415.20 0.6731
415.30 0.6735
415.40 0.674
415.50 0.6744
415.60 0.6749
415.70 0.6753
415.80 0.6758
415.90 0.6762
416.00 0.6767
416.10 0.6771
416.20 0.6775
416.30 0.678
416.40 0.6784
416.50 0.6789
416.60 0.6793
416.70 0.6798
416.80 0.6802
416.90 0.6807
417.00 0.6811
417.10 0.6816
417.20 0.682
417.30 0.6825
417.40 0.6829
417.50 0.6833
417.60 0.6838
417.70 0.6842
417.80 0.6847
417.90 0.6851
418.00 0.6856
418.10 0.686
418.20 0.6865
418.30 0.6869
418.40 0.6873
418.50 0.6878
418.60 0.6882
418.70 0.6887
418.80 0.6891
418.90 0.6896
419.00 0.69
419.10 0.6905
419.20 0.6909
419.30 0.6913
419.40 0.6918
419.50 0.6922
419.60 0.6927
419.70 0.6931
419.80 0.6936
419.90 0.694
420.00 0.6944
420.10 0.6949
420.20 0.6953
420.30 0.6958
420.40 0.6962
420.50 0.6967
420.60 0.6971
420.70 0.6975
420.80 0.698
420.90 0.6984
421.00 0.6989
421.10 0.6993
421.20 0.6997
421.30 0.7002
421.40 0.7006
421.50 0.7011
421.60 0.7015
421.70 0.7019
421.80 0.7024
421.90 0.7028
422.00 0.7033
422.10 0.7037
422.20 0.7041
422.30 0.7046
422.40 0.705
422.50 0.7055
422.60 0.7059
422.70 0.7063
422.80 0.7068
422.90 0.7072
423.00 0.7077
423.10 0.7081
423.20 0.7085
423.30 0.709
423.40 0.7094
423.50 0.7099
423.60 0.7103
423.70 0.7107
423.80 0.7112
423.90 0.7116
424.00 0.712
424.10 0.7125
424.20 0.7129
424.30 0.7134
424.40 0.7138
424.50 0.7142
424.60 0.7147
424.70 0.7151
424.80 0.7155
424.90 0.716
425.00 0.7164
425.10 0.7169
425.20 0.7173
425.30 0.7177
425.40 0.7182
425.50 0.7186
425.60 0.719
425.70 0.7195
425.80 0.7199
425.90 0.7204
426.00 0.7208
426.10 0.7212
426.20 0.7217
426.30 0.7221
426.40 0.7225
426.50 0.723
426.60 0.7234
426.70 0.7238
426.80 0.7243
426.90 0.7247
427.00 0.7251
427.10 0.7256
427.20 0.726
427.30 0.7264
427.40 0.7269
427.50 0.7273
427.60 0.7278
427.70 0.7282
427.80 0.7286
427.90 0.7291
428.00 0.7295
428.10 0.7299
428.20 0.7304
428.30 0.7308
428.40 0.7312
428.50 0.7316
428.60 0.7321
428.70 0.7325
428.80 0.7329
428.90 0.7334
429.00 0.7338
429.10 0.7343
429.20 0.7347
429.30 0.7351
429.40 0.7355
429.50 0.736
429.60 0.7364
429.70 0.7368
429.80 0.7373
429.90 0.7377
430.00 0.7381
430.10 0.7386
430.20 0.739
430.30 0.7394
430.40 0.7399
430.50 0.7403
430.60 0.7407
430.70 0.7411
430.80 0.7416
430.90 0.742
431.00 0.7424
431.10 0.7429
431.20 0.7433
431.30 0.7437
431.40 0.7441
431.50 0.7446
431.60 0.745
431.70 0.7454
431.80 0.7459
431.90 0.7463
432.00 0.7467
432.10 0.7471
432.20 0.7476
432.30 0.748
432.40 0.7484
432.50 0.7489
432.60 0.7493
432.70 0.7497
432.80 0.7502
432.90 0.7506
433.00 0.751
433.10 0.7514
433.20 0.7518
433.30 0.7523
433.40 0.7527
433.50 0.7531
433.60 0.7536
433.70 0.754
433.80 0.7544
433.90 0.7548
434.00 0.7553
434.10 0.7557
434.20 0.7561
434.30 0.7565
434.40 0.757
434.50 0.7574
434.60 0.7578
434.70 0.7582
434.80 0.7587
434.90 0.7591
435.00 0.7595
435.10 0.7599
435.20 0.7604
435.30 0.7608
435.40 0.7612
435.50 0.7616
435.60 0.7621
435.70 0.7625
435.80 0.7629
435.90 0.7633
436.00 0.7638
436.10 0.7642
436.20 0.7646
436.30 0.765
436.40 0.7654
436.50 0.7659
436.60 0.7663
436.70 0.7667
436.80 0.7671
436.90 0.7676
437.00 0.768
437.10 0.7684
437.20 0.7688
437.30 0.7692
437.40 0.7697
437.50 0.7701
437.60 0.7705
437.70 0.7709
437.80 0.7713
437.90 0.7718
438.00 0.7722
438.10 0.7726
438.20 0.773
438.30 0.7734
438.40 0.7739
438.50 0.7743
438.60 0.7747
438.70 0.7751
438.80 0.7755
438.90 0.776
439.00 0.7764
439.10 0.7768
439.20 0.7772
439.30 0.7776
439.40 0.7781
439.50 0.7785
439.60 0.7789
439.70 0.7793
439.80 0.7797
439.90 0.7802
440.00 0.7806
440.10 0.781
440.20 0.7814
440.30 0.7818
440.40 0.7822
440.50 0.7827
440.60 0.7831
440.70 0.7835
440.80 0.7839
440.90 0.7843
441.00 0.7847
441.10 0.7852
441.20 0.7856
441.30 0.786
441.40 0.7864
441.50 0.7868
441.60 0.7872
441.70 0.7876
441.80 0.7881
441.90 0.7885
442.00 0.7889
442.10 0.7893
442.20 0.7897
442.30 0.7901
442.40 0.7905
442.50 0.791
442.60 0.7914
442.70 0.7918
442.80 0.7922
442.90 0.7926
443.00 0.793
443.10 0.7934
