# Version 2.1 - nm, norm@500 to 1, cut digits, bergeron_7500_65.dat_7500
# Wavelength(nm)  Flambda(ergs/cm^s/s/nm)
300.00 1.167
300.10 1.167
300.20 1.167
300.30 1.167
300.40 1.167
300.50 1.167
300.60 1.167
300.70 1.167
300.80 1.167
300.90 1.167
301.00 1.167
301.10 1.167
301.20 1.167
301.30 1.168
301.40 1.168
301.50 1.168
301.60 1.168
301.70 1.168
301.80 1.168
301.90 1.168
302.00 1.168
302.10 1.168
302.20 1.168
302.30 1.168
302.40 1.168
302.50 1.168
302.60 1.168
302.70 1.168
302.80 1.168
302.90 1.169
303.00 1.169
303.10 1.169
303.20 1.169
303.30 1.169
303.40 1.169
303.50 1.169
303.60 1.169
303.70 1.169
303.80 1.169
303.90 1.169
304.00 1.169
304.10 1.169
304.20 1.169
304.30 1.169
304.40 1.169
304.50 1.169
304.60 1.169
304.70 1.169
304.80 1.169
304.90 1.17
305.00 1.17
305.10 1.17
305.20 1.17
305.30 1.17
305.40 1.17
305.50 1.17
305.60 1.17
305.70 1.17
305.80 1.17
305.90 1.17
306.00 1.17
306.10 1.17
306.20 1.17
306.30 1.17
306.40 1.17
306.50 1.17
306.60 1.17
306.70 1.17
306.80 1.17
306.90 1.17
307.00 1.17
307.10 1.17
307.20 1.17
307.30 1.171
307.40 1.171
307.50 1.171
307.60 1.171
307.70 1.171
307.80 1.171
307.90 1.171
308.00 1.171
308.10 1.171
308.20 1.171
308.30 1.171
308.40 1.171
308.50 1.171
308.60 1.171
308.70 1.171
308.80 1.171
308.90 1.171
309.00 1.171
309.10 1.171
309.20 1.171
309.30 1.171
309.40 1.171
309.50 1.171
309.60 1.171
309.70 1.171
309.80 1.171
309.90 1.171
310.00 1.171
310.10 1.171
310.20 1.171
310.30 1.171
310.40 1.171
310.50 1.171
310.60 1.171
310.70 1.171
310.80 1.171
310.90 1.171
311.00 1.171
311.10 1.171
311.20 1.171
311.30 1.171
311.40 1.171
311.50 1.171
311.60 1.171
311.70 1.171
311.80 1.172
311.90 1.172
312.00 1.172
312.10 1.172
312.20 1.172
312.30 1.172
312.40 1.172
312.50 1.172
312.60 1.172
312.70 1.172
312.80 1.172
312.90 1.172
313.00 1.172
313.10 1.172
313.20 1.172
313.30 1.172
313.40 1.172
313.50 1.172
313.60 1.172
313.70 1.172
313.80 1.172
313.90 1.172
314.00 1.172
314.10 1.172
314.20 1.172
314.30 1.172
314.40 1.172
314.50 1.172
314.60 1.172
314.70 1.172
314.80 1.172
314.90 1.172
315.00 1.172
315.10 1.172
315.20 1.172
315.30 1.172
315.40 1.172
315.50 1.172
315.60 1.172
315.70 1.172
315.80 1.172
315.90 1.172
316.00 1.172
316.10 1.172
316.20 1.172
316.30 1.172
316.40 1.172
316.50 1.172
316.60 1.171
316.70 1.171
316.80 1.171
316.90 1.171
317.00 1.171
317.10 1.171
317.20 1.171
317.30 1.171
317.40 1.171
317.50 1.171
317.60 1.171
317.70 1.171
317.80 1.171
317.90 1.171
318.00 1.171
318.10 1.171
318.20 1.171
318.30 1.171
318.40 1.171
318.50 1.171
318.60 1.171
318.70 1.171
318.80 1.171
318.90 1.171
319.00 1.171
319.10 1.171
319.20 1.171
319.30 1.171
319.40 1.171
319.50 1.171
319.60 1.171
319.70 1.171
319.80 1.171
319.90 1.171
320.00 1.171
320.10 1.171
320.20 1.171
320.30 1.171
320.40 1.171
320.50 1.171
320.60 1.171
320.70 1.171
320.80 1.171
320.90 1.171
321.00 1.171
321.10 1.171
321.20 1.17
321.30 1.17
321.40 1.17
321.50 1.17
321.60 1.17
321.70 1.17
321.80 1.17
321.90 1.17
322.00 1.17
322.10 1.17
322.20 1.17
322.30 1.17
322.40 1.17
322.50 1.17
322.60 1.17
322.70 1.17
322.80 1.17
322.90 1.17
323.00 1.17
323.10 1.17
323.20 1.17
323.30 1.17
323.40 1.17
323.50 1.17
323.60 1.17
323.70 1.17
323.80 1.17
323.90 1.169
324.00 1.169
324.10 1.169
324.20 1.169
324.30 1.169
324.40 1.169
324.50 1.169
324.60 1.169
324.70 1.169
324.80 1.169
324.90 1.169
325.00 1.169
325.10 1.169
325.20 1.169
325.30 1.169
325.40 1.169
325.50 1.169
325.60 1.169
325.70 1.169
325.80 1.169
325.90 1.169
326.00 1.168
326.10 1.168
326.20 1.168
326.30 1.168
326.40 1.168
326.50 1.168
326.60 1.168
326.70 1.168
326.80 1.168
326.90 1.168
327.00 1.168
327.10 1.168
327.20 1.168
327.30 1.168
327.40 1.168
327.50 1.168
327.60 1.168
327.70 1.168
327.80 1.167
327.90 1.167
328.00 1.167
328.10 1.167
328.20 1.167
328.30 1.167
328.40 1.167
328.50 1.167
328.60 1.167
328.70 1.167
328.80 1.167
328.90 1.167
329.00 1.167
329.10 1.167
329.20 1.167
329.30 1.167
329.40 1.166
329.50 1.166
329.60 1.166
329.70 1.166
329.80 1.166
329.90 1.166
330.00 1.166
330.10 1.166
330.20 1.166
330.30 1.166
330.40 1.166
330.50 1.166
330.60 1.166
330.70 1.166
330.80 1.166
330.90 1.165
331.00 1.165
331.10 1.165
331.20 1.165
331.30 1.165
331.40 1.165
331.50 1.165
331.60 1.165
331.70 1.165
331.80 1.165
331.90 1.165
332.00 1.165
332.10 1.165
332.20 1.165
332.30 1.164
332.40 1.164
332.50 1.164
332.60 1.164
332.70 1.164
332.80 1.164
332.90 1.164
333.00 1.164
333.10 1.164
333.20 1.164
333.30 1.164
333.40 1.164
333.50 1.164
333.60 1.163
333.70 1.163
333.80 1.163
333.90 1.163
334.00 1.163
334.10 1.163
334.20 1.163
334.30 1.163
334.40 1.163
334.50 1.163
334.60 1.163
334.70 1.163
334.80 1.162
334.90 1.162
335.00 1.162
335.10 1.162
335.20 1.162
335.30 1.162
335.40 1.162
335.50 1.162
335.60 1.162
335.70 1.162
335.80 1.162
335.90 1.161
336.00 1.161
336.10 1.161
336.20 1.161
336.30 1.161
336.40 1.161
336.50 1.161
336.60 1.161
336.70 1.161
336.80 1.161
336.90 1.161
337.00 1.16
337.10 1.16
337.20 1.16
337.30 1.16
337.40 1.16
337.50 1.16
337.60 1.16
337.70 1.16
337.80 1.16
337.90 1.16
338.00 1.16
338.10 1.159
338.20 1.159
338.30 1.159
338.40 1.159
338.50 1.159
338.60 1.159
338.70 1.159
338.80 1.159
338.90 1.159
339.00 1.159
339.10 1.158
339.20 1.158
339.30 1.158
339.40 1.158
339.50 1.158
339.60 1.158
339.70 1.158
339.80 1.158
339.90 1.158
340.00 1.158
340.10 1.157
340.20 1.157
340.30 1.157
340.40 1.157
340.50 1.157
340.60 1.157
340.70 1.157
340.80 1.157
340.90 1.157
341.00 1.157
341.10 1.156
341.20 1.156
341.30 1.156
341.40 1.156
341.50 1.156
341.60 1.156
341.70 1.156
341.80 1.156
341.90 1.156
342.00 1.155
342.10 1.155
342.20 1.155
342.30 1.155
342.40 1.155
342.50 1.155
342.60 1.155
342.70 1.155
342.80 1.155
342.90 1.154
343.00 1.154
343.10 1.154
343.20 1.154
343.30 1.154
343.40 1.154
343.50 1.154
343.60 1.154
343.70 1.154
343.80 1.153
343.90 1.153
344.00 1.153
344.10 1.153
344.20 1.153
344.30 1.153
344.40 1.153
344.50 1.153
344.60 1.153
344.70 1.152
344.80 1.152
344.90 1.152
345.00 1.152
345.10 1.152
345.20 1.152
345.30 1.152
345.40 1.152
345.50 1.151
345.60 1.151
345.70 1.151
345.80 1.151
345.90 1.151
346.00 1.151
346.10 1.151
346.20 1.151
346.30 1.151
346.40 1.15
346.50 1.15
346.60 1.15
346.70 1.15
346.80 1.15
346.90 1.15
347.00 1.15
347.10 1.15
347.20 1.149
347.30 1.149
347.40 1.149
347.50 1.149
347.60 1.149
347.70 1.149
347.80 1.149
347.90 1.149
348.00 1.148
348.10 1.148
348.20 1.148
348.30 1.148
348.40 1.148
348.50 1.148
348.60 1.148
348.70 1.148
348.80 1.147
348.90 1.147
349.00 1.147
349.10 1.147
349.20 1.147
349.30 1.147
349.40 1.147
349.50 1.146
349.60 1.146
349.70 1.146
349.80 1.146
349.90 1.146
350.00 1.146
350.10 1.146
350.20 1.146
350.30 1.145
350.40 1.145
350.50 1.145
350.60 1.145
350.70 1.145
350.80 1.145
350.90 1.145
351.00 1.144
351.10 1.144
351.20 1.144
351.30 1.144
351.40 1.144
351.50 1.144
351.60 1.144
351.70 1.144
351.80 1.143
351.90 1.143
352.00 1.143
352.10 1.143
352.20 1.143
352.30 1.143
352.40 1.143
352.50 1.142
352.60 1.142
352.70 1.142
352.80 1.142
352.90 1.142
353.00 1.142
353.10 1.142
353.20 1.141
353.30 1.141
353.40 1.141
353.50 1.141
353.60 1.141
353.70 1.141
353.80 1.141
353.90 1.14
354.00 1.14
354.10 1.14
354.20 1.14
354.30 1.14
354.40 1.14
354.50 1.14
354.60 1.139
354.70 1.139
354.80 1.139
354.90 1.139
355.00 1.139
355.10 1.139
355.20 1.139
355.30 1.138
355.40 1.138
355.50 1.138
355.60 1.138
355.70 1.138
355.80 1.138
355.90 1.138
356.00 1.137
356.10 1.137
356.20 1.137
356.30 1.137
356.40 1.137
356.50 1.137
356.60 1.137
356.70 1.136
356.80 1.136
356.90 1.136
357.00 1.136
357.10 1.136
357.20 1.136
357.30 1.135
357.40 1.135
357.50 1.135
357.60 1.135
357.70 1.135
357.80 1.135
357.90 1.135
358.00 1.134
358.10 1.134
358.20 1.134
358.30 1.134
358.40 1.134
358.50 1.134
358.60 1.133
358.70 1.133
358.80 1.133
358.90 1.133
359.00 1.133
359.10 1.133
359.20 1.133
359.30 1.132
359.40 1.132
359.50 1.132
359.60 1.132
359.70 1.132
359.80 1.132
359.90 1.131
360.00 1.131
360.10 1.131
360.20 1.131
360.30 1.131
360.40 1.131
360.50 1.131
360.60 1.13
360.70 1.13
360.80 1.13
360.90 1.13
361.00 1.13
361.10 1.13
361.20 1.129
361.30 1.129
361.40 1.129
361.50 1.129
361.60 1.129
361.70 1.129
361.80 1.128
361.90 1.128
362.00 1.128
362.10 1.128
362.20 1.128
362.30 1.128
362.40 1.127
362.50 1.127
362.60 1.127
362.70 1.127
362.80 1.127
362.90 1.127
363.00 1.126
363.10 1.126
363.20 1.126
363.30 1.126
363.40 1.126
363.50 1.126
363.60 1.125
363.70 1.125
363.80 1.125
363.90 1.125
364.00 1.125
364.10 1.125
364.20 1.124
364.30 1.124
364.40 1.124
364.50 1.124
364.60 1.124
364.70 1.123
364.80 1.123
364.90 1.123
365.00 1.123
365.10 1.123
365.20 1.123
365.30 1.122
365.40 1.122
365.50 1.122
365.60 1.122
365.70 1.122
365.80 1.122
365.90 1.121
366.00 1.121
366.10 1.121
366.20 1.121
366.30 1.121
366.40 1.121
366.50 1.12
366.60 1.12
366.70 1.12
366.80 1.12
366.90 1.12
367.00 1.119
367.10 1.119
367.20 1.119
367.30 1.119
367.40 1.119
367.50 1.119
367.60 1.118
367.70 1.118
367.80 1.118
367.90 1.118
368.00 1.118
368.10 1.118
368.20 1.117
368.30 1.117
368.40 1.117
368.50 1.117
368.60 1.117
368.70 1.116
368.80 1.116
368.90 1.116
369.00 1.116
369.10 1.116
369.20 1.116
369.30 1.115
369.40 1.115
369.50 1.115
369.60 1.115
369.70 1.115
369.80 1.114
369.90 1.114
370.00 1.114
370.10 1.117
370.20 1.12
370.30 1.123
370.40 1.127
370.50 1.13
370.60 1.133
370.70 1.136
370.80 1.139
370.90 1.142
371.00 1.145
371.10 1.149
371.20 1.152
371.30 1.155
371.40 1.158
371.50 1.161
371.60 1.164
371.70 1.167
371.80 1.17
371.90 1.173
372.00 1.176
372.10 1.179
372.20 1.181
372.30 1.183
372.40 1.185
372.50 1.188
372.60 1.19
372.70 1.192
372.80 1.194
372.90 1.196
373.00 1.199
373.10 1.201
373.20 1.203
373.30 1.205
373.40 1.207
373.50 1.21
373.60 1.212
373.70 1.214
373.80 1.216
373.90 1.218
374.00 1.221
374.10 1.222
374.20 1.224
374.30 1.226
374.40 1.227
374.50 1.229
374.60 1.231
374.70 1.233
374.80 1.234
374.90 1.236
375.00 1.238
375.10 1.24
375.20 1.241
375.30 1.243
375.40 1.245
375.50 1.246
375.60 1.248
375.70 1.25
375.80 1.251
375.90 1.253
376.00 1.255
376.10 1.256
376.20 1.257
376.30 1.257
376.40 1.258
376.50 1.259
376.60 1.26
376.70 1.261
376.80 1.262
376.90 1.262
377.00 1.263
377.10 1.262
377.20 1.262
377.30 1.261
377.40 1.26
377.50 1.259
377.60 1.258
377.70 1.257
377.80 1.256
377.90 1.255
378.00 1.255
378.10 1.246
378.20 1.238
378.30 1.23
378.40 1.222
378.50 1.214
378.60 1.205
378.70 1.197
378.80 1.189
378.90 1.181
379.00 1.173
379.10 1.154
379.20 1.135
379.30 1.116
379.40 1.097
379.50 1.078
379.60 1.059
379.70 1.04
379.80 1.021
379.90 1.002
380.00 0.9828
380.10 1.007
380.20 1.031
380.30 1.055
380.40 1.08
380.50 1.104
380.60 1.128
380.70 1.152
380.80 1.176
380.90 1.2
381.00 1.224
381.10 1.228
381.20 1.233
381.30 1.237
381.40 1.242
381.50 1.246
381.60 1.247
381.70 1.247
381.80 1.245
381.90 1.243
382.00 1.239
382.10 1.234
382.20 1.227
382.30 1.203
382.40 1.18
382.50 1.156
382.60 1.133
382.70 1.109
382.80 1.086
382.90 1.062
383.00 1.039
383.10 1.016
383.20 0.9923
383.30 0.9239
383.40 0.8162
383.50 0.6179
383.60 0.6735
383.70 0.8453
383.80 0.9417
383.90 1.005
384.00 1.052
384.10 1.088
384.20 1.119
384.30 1.145
384.40 1.167
384.50 1.186
384.60 1.202
384.70 1.216
384.80 1.227
384.90 1.237
385.00 1.245
385.10 1.252
385.20 1.258
385.30 1.263
385.40 1.266
385.50 1.27
385.60 1.273
385.70 1.275
385.80 1.276
385.90 1.278
386.00 1.278
386.10 1.279
386.20 1.279
386.30 1.278
386.40 1.278
386.50 1.277
386.60 1.275
386.70 1.273
386.80 1.27
386.90 1.267
387.00 1.263
387.10 1.259
387.20 1.254
387.30 1.248
387.40 1.241
387.50 1.232
387.60 1.222
387.70 1.21
387.80 1.195
387.90 1.178
388.00 1.158
388.10 1.133
388.20 1.103
388.30 1.07
388.40 1.026
388.50 0.9736
388.60 0.9116
388.70 0.8052
388.80 0.6431
388.90 0.4252
389.00 0.6331
389.10 0.7926
389.20 0.9038
389.30 0.9677
389.40 1.022
389.50 1.066
389.60 1.1
389.70 1.129
389.80 1.155
389.90 1.175
390.00 1.193
390.10 1.208
390.20 1.22
390.30 1.231
390.40 1.24
390.50 1.247
390.60 1.254
390.70 1.26
390.80 1.265
390.90 1.269
391.00 1.273
391.10 1.276
391.20 1.279
391.30 1.282
391.40 1.284
391.50 1.286
391.60 1.288
391.70 1.289
391.80 1.29
391.90 1.292
392.00 1.292
392.10 1.293
392.20 1.294
392.30 1.294
392.40 1.295
392.50 1.295
392.60 1.295
392.70 1.295
392.80 1.295
392.90 1.295
393.00 1.295
393.10 1.295
393.20 1.294
393.30 1.294
393.40 1.293
393.50 1.292
393.60 1.291
393.70 1.29
393.80 1.289
393.90 1.288
394.00 1.286
394.10 1.285
394.20 1.283
394.30 1.281
394.40 1.278
394.50 1.276
394.60 1.273
394.70 1.27
394.80 1.266
394.90 1.262
395.00 1.258
395.10 1.253
395.20 1.247
395.30 1.24
395.40 1.233
395.50 1.225
395.60 1.215
395.70 1.204
395.80 1.191
395.90 1.175
396.00 1.157
396.10 1.136
396.20 1.109
396.30 1.078
396.40 1.042
396.50 0.9943
396.60 0.9365
396.70 0.8687
396.80 0.7544
396.90 0.5862
397.00 0.3644
397.10 0.5712
397.20 0.7353
397.30 0.8568
397.40 0.927
397.50 0.9866
397.60 1.035
397.70 1.072
397.80 1.103
397.90 1.131
398.00 1.151
398.10 1.17
398.20 1.186
398.30 1.198
398.40 1.209
398.50 1.219
398.60 1.227
398.70 1.234
398.80 1.241
398.90 1.246
399.00 1.251
399.10 1.255
399.20 1.259
399.30 1.262
399.40 1.265
399.50 1.268
399.60 1.27
399.70 1.272
399.80 1.274
399.90 1.276
400.00 1.277
400.10 1.278
400.20 1.28
400.30 1.281
400.40 1.282
400.50 1.283
400.60 1.283
400.70 1.284
400.80 1.285
400.90 1.285
401.00 1.286
401.10 1.286
401.20 1.286
401.30 1.287
401.40 1.287
401.50 1.287
401.60 1.287
401.70 1.288
401.80 1.288
401.90 1.288
402.00 1.288
402.10 1.288
402.20 1.288
402.30 1.288
402.40 1.288
402.50 1.288
402.60 1.288
402.70 1.287
402.80 1.287
402.90 1.287
403.00 1.287
403.10 1.287
403.20 1.287
403.30 1.286
403.40 1.286
403.50 1.286
403.60 1.286
403.70 1.285
403.80 1.285
403.90 1.285
404.00 1.284
404.10 1.284
404.20 1.284
404.30 1.283
404.40 1.283
404.50 1.282
404.60 1.282
404.70 1.281
404.80 1.281
404.90 1.28
405.00 1.28
405.10 1.279
405.20 1.279
405.30 1.278
405.40 1.277
405.50 1.277
405.60 1.276
405.70 1.275
405.80 1.275
405.90 1.274
406.00 1.273
406.10 1.272
406.20 1.271
406.30 1.27
406.40 1.269
406.50 1.267
406.60 1.266
406.70 1.265
406.80 1.263
406.90 1.262
407.00 1.26
407.10 1.258
407.20 1.256
407.30 1.254
407.40 1.251
407.50 1.249
407.60 1.246
407.70 1.242
407.80 1.239
407.90 1.235
408.00 1.231
408.10 1.226
408.20 1.221
408.30 1.215
408.40 1.209
408.50 1.202
408.60 1.194
408.70 1.185
408.80 1.174
408.90 1.162
409.00 1.149
409.10 1.133
409.20 1.114
409.30 1.093
409.40 1.064
409.50 1.031
409.60 0.9935
409.70 0.9419
409.80 0.8785
409.90 0.8035
410.00 0.6694
410.10 0.5267
410.20 0.3757
410.30 0.5856
410.40 0.7436
410.50 0.8499
410.60 0.9142
410.70 0.9691
410.80 1.015
410.90 1.048
411.00 1.077
411.10 1.102
411.20 1.121
411.30 1.138
411.40 1.152
411.50 1.164
411.60 1.174
411.70 1.184
411.80 1.191
411.90 1.198
412.00 1.205
412.10 1.21
412.20 1.215
412.30 1.219
412.40 1.223
412.50 1.226
412.60 1.229
412.70 1.232
412.80 1.234
412.90 1.237
413.00 1.239
413.10 1.24
413.20 1.242
413.30 1.243
413.40 1.244
413.50 1.246
413.60 1.247
413.70 1.247
413.80 1.248
413.90 1.249
414.00 1.25
414.10 1.25
414.20 1.251
414.30 1.251
414.40 1.251
414.50 1.252
414.60 1.252
414.70 1.252
414.80 1.253
414.90 1.253
415.00 1.253
415.10 1.253
415.20 1.253
415.30 1.253
415.40 1.253
415.50 1.253
415.60 1.253
415.70 1.253
415.80 1.253
415.90 1.253
416.00 1.253
416.10 1.253
416.20 1.253
416.30 1.253
416.40 1.253
416.50 1.253
416.60 1.253
416.70 1.252
416.80 1.252
416.90 1.252
417.00 1.252
417.10 1.252
417.20 1.252
417.30 1.251
417.40 1.251
417.50 1.251
417.60 1.251
417.70 1.251
417.80 1.25
417.90 1.25
418.00 1.25
418.10 1.25
418.20 1.25
418.30 1.249
418.40 1.249
418.50 1.249
418.60 1.249
418.70 1.248
418.80 1.248
418.90 1.248
419.00 1.248
419.10 1.247
419.20 1.247
419.30 1.247
419.40 1.247
419.50 1.246
419.60 1.246
419.70 1.246
419.80 1.246
419.90 1.245
420.00 1.245
420.10 1.245
420.20 1.244
420.30 1.244
420.40 1.244
420.50 1.244
420.60 1.243
420.70 1.243
420.80 1.243
420.90 1.242
421.00 1.242
421.10 1.242
421.20 1.242
421.30 1.241
421.40 1.241
421.50 1.241
421.60 1.24
421.70 1.24
421.80 1.24
421.90 1.24
422.00 1.239
422.10 1.239
422.20 1.239
422.30 1.238
422.40 1.238
422.50 1.238
422.60 1.237
422.70 1.237
422.80 1.237
422.90 1.236
423.00 1.236
423.10 1.236
423.20 1.235
423.30 1.235
423.40 1.235
423.50 1.234
423.60 1.234
423.70 1.234
423.80 1.233
423.90 1.233
424.00 1.233
424.10 1.232
424.20 1.232
424.30 1.232
424.40 1.231
424.50 1.231
424.60 1.231
424.70 1.23
424.80 1.23
424.90 1.23
425.00 1.229
425.10 1.229
425.20 1.229
425.30 1.228
425.40 1.228
425.50 1.228
425.60 1.227
425.70 1.227
425.80 1.227
425.90 1.226
426.00 1.226
426.10 1.225
426.20 1.225
426.30 1.225
426.40 1.224
426.50 1.224
426.60 1.223
426.70 1.223
426.80 1.222
426.90 1.222
427.00 1.222
427.10 1.221
427.20 1.221
427.30 1.22
427.40 1.22
427.50 1.219
427.60 1.219
427.70 1.218
427.80 1.218
427.90 1.217
428.00 1.217
428.10 1.216
428.20 1.216
428.30 1.215
428.40 1.215
428.50 1.214
428.60 1.214
428.70 1.213
428.80 1.212
428.90 1.212
429.00 1.211
429.10 1.21
429.20 1.21
429.30 1.209
429.40 1.208
429.50 1.207
429.60 1.206
429.70 1.205
429.80 1.204
429.90 1.203
430.00 1.203
430.10 1.201
430.20 1.2
430.30 1.199
430.40 1.198
430.50 1.196
430.60 1.195
430.70 1.193
430.80 1.192
430.90 1.19
431.00 1.188
431.10 1.187
431.20 1.185
431.30 1.182
431.40 1.18
431.50 1.178
431.60 1.175
431.70 1.172
431.80 1.169
431.90 1.165
432.00 1.16
432.10 1.156
432.20 1.15
432.30 1.144
432.40 1.137
432.50 1.128
432.60 1.119
432.70 1.108
432.80 1.095
432.90 1.081
433.00 1.066
433.10 1.048
433.20 1.027
433.30 1.004
433.40 0.9702
433.50 0.9306
433.60 0.8847
433.70 0.82
433.80 0.7303
433.90 0.6159
434.00 0.4355
434.10 0.4397
434.20 0.628
434.30 0.7386
434.40 0.8253
434.50 0.8881
434.60 0.9327
434.70 0.9711
434.80 1.003
434.90 1.026
435.00 1.046
435.10 1.064
435.20 1.078
435.30 1.091
435.40 1.103
435.50 1.113
435.60 1.122
435.70 1.129
435.80 1.136
435.90 1.141
436.00 1.146
436.10 1.15
436.20 1.154
436.30 1.157
436.40 1.159
436.50 1.162
436.60 1.164
436.70 1.166
436.80 1.167
436.90 1.169
437.00 1.17
437.10 1.171
437.20 1.172
437.30 1.173
437.40 1.174
437.50 1.175
437.60 1.176
437.70 1.177
437.80 1.177
437.90 1.178
438.00 1.178
438.10 1.179
438.20 1.179
438.30 1.179
438.40 1.18
438.50 1.18
438.60 1.18
438.70 1.18
438.80 1.181
438.90 1.181
439.00 1.181
439.10 1.181
439.20 1.181
439.30 1.181
439.40 1.181
439.50 1.181
439.60 1.181
439.70 1.181
439.80 1.181
439.90 1.181
440.00 1.181
440.10 1.18
440.20 1.18
440.30 1.18
440.40 1.18
440.50 1.18
440.60 1.18
440.70 1.18
440.80 1.179
440.90 1.179
441.00 1.179
441.10 1.179
441.20 1.179
441.30 1.179
441.40 1.178
441.50 1.178
441.60 1.178
441.70 1.178
441.80 1.177
441.90 1.177
442.00 1.177
442.10 1.177
442.20 1.176
442.30 1.176
442.40 1.176
442.50 1.176
442.60 1.175
442.70 1.175
442.80 1.175
442.90 1.175
443.00 1.175
443.10 1.174
443.20 1.174
443.30 1.174
443.40 1.173
443.50 1.173
443.60 1.173
443.70 1.173
443.80 1.172
443.90 1.172
444.00 1.172
444.10 1.172
444.20 1.171
444.30 1.171
444.40 1.171
444.50 1.17
444.60 1.17
444.70 1.17
444.80 1.17
444.90 1.169
445.00 1.169
445.10 1.169
445.20 1.168
445.30 1.168
445.40 1.168
445.50 1.168
445.60 1.167
445.70 1.167
445.80 1.167
445.90 1.166
446.00 1.166
446.10 1.166
446.20 1.166
446.30 1.165
446.40 1.165
446.50 1.165
446.60 1.164
446.70 1.164
446.80 1.164
446.90 1.164
447.00 1.163
447.10 1.163
447.20 1.163
447.30 1.162
447.40 1.162
447.50 1.162
447.60 1.161
447.70 1.161
447.80 1.161
447.90 1.161
448.00 1.16
448.10 1.16
448.20 1.16
448.30 1.159
448.40 1.159
448.50 1.159
448.60 1.158
448.70 1.158
448.80 1.158
448.90 1.158
449.00 1.157
449.10 1.157
449.20 1.157
449.30 1.156
449.40 1.156
449.50 1.156
449.60 1.155
449.70 1.155
449.80 1.155
449.90 1.154
450.00 1.154
450.10 1.154
450.20 1.154
450.30 1.153
450.40 1.153
450.50 1.153
450.60 1.152
450.70 1.152
450.80 1.152
450.90 1.151
451.00 1.151
451.10 1.151
451.20 1.15
451.30 1.15
451.40 1.15
451.50 1.15
451.60 1.149
451.70 1.149
451.80 1.149
451.90 1.148
452.00 1.148
452.10 1.148
452.20 1.147
452.30 1.147
452.40 1.147
452.50 1.146
452.60 1.146
452.70 1.146
452.80 1.146
452.90 1.145
453.00 1.145
453.10 1.145
453.20 1.144
453.30 1.144
453.40 1.144
453.50 1.143
453.60 1.143
453.70 1.143
453.80 1.142
