# Version 2.1 - nm, norm@500 to 1, cut digits, bergeron_6500_70.dat_6500
# Wavelength(nm)  Flambda(ergs/cm^s/s/nm)
300.00 0.9048
300.10 0.9052
300.20 0.9056
300.30 0.906
300.40 0.9063
300.50 0.9067
300.60 0.9071
300.70 0.9075
300.80 0.9079
300.90 0.9083
301.00 0.9087
301.10 0.909
301.20 0.9094
301.30 0.9098
301.40 0.9102
301.50 0.9106
301.60 0.9109
301.70 0.9113
301.80 0.9117
301.90 0.9121
302.00 0.9125
302.10 0.9128
302.20 0.9132
302.30 0.9136
302.40 0.914
302.50 0.9143
302.60 0.9147
302.70 0.9151
302.80 0.9155
302.90 0.9158
303.00 0.9162
303.10 0.9166
303.20 0.9169
303.30 0.9173
303.40 0.9177
303.50 0.9181
303.60 0.9184
303.70 0.9188
303.80 0.9192
303.90 0.9195
304.00 0.9199
304.10 0.9203
304.20 0.9206
304.30 0.921
304.40 0.9214
304.50 0.9217
304.60 0.9221
304.70 0.9225
304.80 0.9228
304.90 0.9232
305.00 0.9236
305.10 0.9239
305.20 0.9243
305.30 0.9247
305.40 0.925
305.50 0.9254
305.60 0.9257
305.70 0.9261
305.80 0.9265
305.90 0.9268
306.00 0.9272
306.10 0.9275
306.20 0.9279
306.30 0.9282
306.40 0.9286
306.50 0.929
306.60 0.9293
306.70 0.9297
306.80 0.93
306.90 0.9304
307.00 0.9307
307.10 0.9311
307.20 0.9314
307.30 0.9318
307.40 0.9321
307.50 0.9325
307.60 0.9328
307.70 0.9332
307.80 0.9335
307.90 0.9339
308.00 0.9342
308.10 0.9346
308.20 0.9349
308.30 0.9353
308.40 0.9356
308.50 0.936
308.60 0.9363
308.70 0.9366
308.80 0.937
308.90 0.9373
309.00 0.9377
309.10 0.938
309.20 0.9384
309.30 0.9387
309.40 0.939
309.50 0.9394
309.60 0.9397
309.70 0.9401
309.80 0.9404
309.90 0.9407
310.00 0.9411
310.10 0.9414
310.20 0.9417
310.30 0.9421
310.40 0.9424
310.50 0.9428
310.60 0.9431
310.70 0.9434
310.80 0.9438
310.90 0.9441
311.00 0.9444
311.10 0.9448
311.20 0.9451
311.30 0.9454
311.40 0.9457
311.50 0.9461
311.60 0.9464
311.70 0.9467
311.80 0.9471
311.90 0.9474
312.00 0.9477
312.10 0.948
312.20 0.9484
312.30 0.9487
312.40 0.949
312.50 0.9494
312.60 0.9497
312.70 0.95
312.80 0.9503
312.90 0.9507
313.00 0.951
313.10 0.9513
313.20 0.9516
313.30 0.9519
313.40 0.9523
313.50 0.9526
313.60 0.9529
313.70 0.9532
313.80 0.9535
313.90 0.9539
314.00 0.9542
314.10 0.9545
314.20 0.9548
314.30 0.9551
314.40 0.9554
314.50 0.9558
314.60 0.9561
314.70 0.9564
314.80 0.9567
314.90 0.957
315.00 0.9573
315.10 0.9576
315.20 0.958
315.30 0.9583
315.40 0.9586
315.50 0.9589
315.60 0.9592
315.70 0.9595
315.80 0.9598
315.90 0.9601
316.00 0.9604
316.10 0.9607
316.20 0.961
316.30 0.9614
316.40 0.9617
316.50 0.962
316.60 0.9623
316.70 0.9626
316.80 0.9629
316.90 0.9632
317.00 0.9635
317.10 0.9638
317.20 0.9641
317.30 0.9644
317.40 0.9647
317.50 0.965
317.60 0.9653
317.70 0.9656
317.80 0.9659
317.90 0.9662
318.00 0.9665
318.10 0.9668
318.20 0.9671
318.30 0.9674
318.40 0.9677
318.50 0.968
318.60 0.9682
318.70 0.9685
318.80 0.9688
318.90 0.9691
319.00 0.9694
319.10 0.9697
319.20 0.97
319.30 0.9703
319.40 0.9706
319.50 0.9709
319.60 0.9712
319.70 0.9715
319.80 0.9717
319.90 0.972
320.00 0.9723
320.10 0.9726
320.20 0.9729
320.30 0.9732
320.40 0.9735
320.50 0.9738
320.60 0.974
320.70 0.9743
320.80 0.9746
320.90 0.9749
321.00 0.9752
321.10 0.9755
321.20 0.9758
321.30 0.976
321.40 0.9763
321.50 0.9766
321.60 0.9769
321.70 0.9772
321.80 0.9774
321.90 0.9777
322.00 0.978
322.10 0.9783
322.20 0.9786
322.30 0.9788
322.40 0.9791
322.50 0.9794
322.60 0.9797
322.70 0.9799
322.80 0.9802
322.90 0.9805
323.00 0.9808
323.10 0.981
323.20 0.9813
323.30 0.9816
323.40 0.9818
323.50 0.9821
323.60 0.9824
323.70 0.9827
323.80 0.9829
323.90 0.9832
324.00 0.9835
324.10 0.9837
324.20 0.984
324.30 0.9843
324.40 0.9845
324.50 0.9848
324.60 0.9851
324.70 0.9853
324.80 0.9856
324.90 0.9859
325.00 0.9861
325.10 0.9864
325.20 0.9866
325.30 0.9869
325.40 0.9872
325.50 0.9874
325.60 0.9877
325.70 0.9879
325.80 0.9882
325.90 0.9885
326.00 0.9887
326.10 0.989
326.20 0.9892
326.30 0.9895
326.40 0.9898
326.50 0.99
326.60 0.9903
326.70 0.9905
326.80 0.9908
326.90 0.991
327.00 0.9913
327.10 0.9916
327.20 0.9918
327.30 0.9921
327.40 0.9923
327.50 0.9926
327.60 0.9928
327.70 0.9931
327.80 0.9933
327.90 0.9936
328.00 0.9938
328.10 0.9941
328.20 0.9943
328.30 0.9946
328.40 0.9948
328.50 0.9951
328.60 0.9953
328.70 0.9956
328.80 0.9958
328.90 0.996
329.00 0.9963
329.10 0.9965
329.20 0.9968
329.30 0.997
329.40 0.9973
329.50 0.9975
329.60 0.9977
329.70 0.998
329.80 0.9982
329.90 0.9985
330.00 0.9987
330.10 0.999
330.20 0.9992
330.30 0.9994
330.40 0.9997
330.50 0.9999
330.60 1
330.70 1
330.80 1.001
330.90 1.001
331.00 1.001
331.10 1.001
331.20 1.002
331.30 1.002
331.40 1.002
331.50 1.002
331.60 1.002
331.70 1.003
331.80 1.003
331.90 1.003
332.00 1.003
332.10 1.004
332.20 1.004
332.30 1.004
332.40 1.004
332.50 1.005
332.60 1.005
332.70 1.005
332.80 1.005
332.90 1.005
333.00 1.006
333.10 1.006
333.20 1.006
333.30 1.006
333.40 1.007
333.50 1.007
333.60 1.007
333.70 1.007
333.80 1.007
333.90 1.008
334.00 1.008
334.10 1.008
334.20 1.008
334.30 1.009
334.40 1.009
334.50 1.009
334.60 1.009
334.70 1.009
334.80 1.01
334.90 1.01
335.00 1.01
335.10 1.01
335.20 1.011
335.30 1.011
335.40 1.011
335.50 1.011
335.60 1.011
335.70 1.012
335.80 1.012
335.90 1.012
336.00 1.012
336.10 1.012
336.20 1.013
336.30 1.013
336.40 1.013
336.50 1.013
336.60 1.014
336.70 1.014
336.80 1.014
336.90 1.014
337.00 1.014
337.10 1.015
337.20 1.015
337.30 1.015
337.40 1.015
337.50 1.015
337.60 1.016
337.70 1.016
337.80 1.016
337.90 1.016
338.00 1.016
338.10 1.017
338.20 1.017
338.30 1.017
338.40 1.017
338.50 1.017
338.60 1.018
338.70 1.018
338.80 1.018
338.90 1.018
339.00 1.018
339.10 1.019
339.20 1.019
339.30 1.019
339.40 1.019
339.50 1.019
339.60 1.02
339.70 1.02
339.80 1.02
339.90 1.02
340.00 1.02
340.10 1.021
340.20 1.021
340.30 1.021
340.40 1.021
340.50 1.021
340.60 1.022
340.70 1.022
340.80 1.022
340.90 1.022
341.00 1.022
341.10 1.023
341.20 1.023
341.30 1.023
341.40 1.023
341.50 1.023
341.60 1.023
341.70 1.024
341.80 1.024
341.90 1.024
342.00 1.024
342.10 1.024
342.20 1.025
342.30 1.025
342.40 1.025
342.50 1.025
342.60 1.025
342.70 1.026
342.80 1.026
342.90 1.026
343.00 1.026
343.10 1.026
343.20 1.026
343.30 1.027
343.40 1.027
343.50 1.027
343.60 1.027
343.70 1.027
343.80 1.028
343.90 1.028
344.00 1.028
344.10 1.028
344.20 1.028
344.30 1.028
344.40 1.029
344.50 1.029
344.60 1.029
344.70 1.029
344.80 1.029
344.90 1.029
345.00 1.03
345.10 1.03
345.20 1.03
345.30 1.03
345.40 1.03
345.50 1.03
345.60 1.031
345.70 1.031
345.80 1.031
345.90 1.031
346.00 1.031
346.10 1.031
346.20 1.032
346.30 1.032
346.40 1.032
346.50 1.032
346.60 1.032
346.70 1.032
346.80 1.033
346.90 1.033
347.00 1.033
347.10 1.033
347.20 1.033
347.30 1.033
347.40 1.034
347.50 1.034
347.60 1.034
347.70 1.034
347.80 1.034
347.90 1.034
348.00 1.035
348.10 1.035
348.20 1.035
348.30 1.035
348.40 1.035
348.50 1.035
348.60 1.036
348.70 1.036
348.80 1.036
348.90 1.036
349.00 1.036
349.10 1.036
349.20 1.036
349.30 1.037
349.40 1.037
349.50 1.037
349.60 1.037
349.70 1.037
349.80 1.037
349.90 1.038
350.00 1.038
350.10 1.038
350.20 1.038
350.30 1.038
350.40 1.038
350.50 1.038
350.60 1.039
350.70 1.039
350.80 1.039
350.90 1.039
351.00 1.039
351.10 1.039
351.20 1.04
351.30 1.04
351.40 1.04
351.50 1.04
351.60 1.04
351.70 1.04
351.80 1.04
351.90 1.041
352.00 1.041
352.10 1.041
352.20 1.041
352.30 1.041
352.40 1.041
352.50 1.041
352.60 1.042
352.70 1.042
352.80 1.042
352.90 1.042
353.00 1.042
353.10 1.042
353.20 1.042
353.30 1.043
353.40 1.043
353.50 1.043
353.60 1.043
353.70 1.043
353.80 1.043
353.90 1.043
354.00 1.043
354.10 1.044
354.20 1.044
354.30 1.044
354.40 1.044
354.50 1.044
354.60 1.044
354.70 1.044
354.80 1.045
354.90 1.045
355.00 1.045
355.10 1.045
355.20 1.045
355.30 1.045
355.40 1.045
355.50 1.045
355.60 1.046
355.70 1.046
355.80 1.046
355.90 1.046
356.00 1.046
356.10 1.046
356.20 1.046
356.30 1.046
356.40 1.047
356.50 1.047
356.60 1.047
356.70 1.047
356.80 1.047
356.90 1.047
357.00 1.047
357.10 1.047
357.20 1.048
357.30 1.048
357.40 1.048
357.50 1.048
357.60 1.048
357.70 1.048
357.80 1.048
357.90 1.048
358.00 1.049
358.10 1.049
358.20 1.049
358.30 1.049
358.40 1.049
358.50 1.049
358.60 1.049
358.70 1.049
358.80 1.05
358.90 1.05
359.00 1.05
359.10 1.05
359.20 1.05
359.30 1.05
359.40 1.05
359.50 1.05
359.60 1.05
359.70 1.051
359.80 1.051
359.90 1.051
360.00 1.051
360.10 1.051
360.20 1.051
360.30 1.051
360.40 1.051
360.50 1.051
360.60 1.052
360.70 1.052
360.80 1.052
360.90 1.052
361.00 1.052
361.10 1.052
361.20 1.052
361.30 1.052
361.40 1.052
361.50 1.053
361.60 1.053
361.70 1.053
361.80 1.053
361.90 1.053
362.00 1.053
362.10 1.053
362.20 1.053
362.30 1.053
362.40 1.053
362.50 1.054
362.60 1.054
362.70 1.054
362.80 1.054
362.90 1.054
363.00 1.054
363.10 1.054
363.20 1.054
363.30 1.054
363.40 1.054
363.50 1.055
363.60 1.055
363.70 1.055
363.80 1.055
363.90 1.055
364.00 1.055
364.10 1.055
364.20 1.055
364.30 1.055
364.40 1.055
364.50 1.056
364.60 1.056
364.70 1.056
364.80 1.056
364.90 1.056
365.00 1.056
365.10 1.056
365.20 1.056
365.30 1.056
365.40 1.056
365.50 1.056
365.60 1.057
365.70 1.057
365.80 1.057
365.90 1.057
366.00 1.057
366.10 1.057
366.20 1.057
366.30 1.057
366.40 1.057
366.50 1.057
366.60 1.057
366.70 1.057
366.80 1.058
366.90 1.058
367.00 1.058
367.10 1.058
367.20 1.058
367.30 1.058
367.40 1.058
367.50 1.058
367.60 1.058
367.70 1.058
367.80 1.058
367.90 1.058
368.00 1.059
368.10 1.059
368.20 1.059
368.30 1.059
368.40 1.059
368.50 1.059
368.60 1.059
368.70 1.059
368.80 1.059
368.90 1.059
369.00 1.059
369.10 1.059
369.20 1.06
369.30 1.06
369.40 1.06
369.50 1.06
369.60 1.06
369.70 1.06
369.80 1.06
369.90 1.06
370.00 1.06
370.10 1.06
370.20 1.061
370.30 1.061
370.40 1.061
370.50 1.061
370.60 1.061
370.70 1.062
370.80 1.062
370.90 1.062
371.00 1.062
371.10 1.062
371.20 1.062
371.30 1.063
371.40 1.063
371.50 1.063
371.60 1.063
371.70 1.063
371.80 1.064
371.90 1.064
372.00 1.064
372.10 1.064
372.20 1.065
372.30 1.065
372.40 1.066
372.50 1.066
372.60 1.066
372.70 1.067
372.80 1.067
372.90 1.068
373.00 1.068
373.10 1.068
373.20 1.069
373.30 1.069
373.40 1.07
373.50 1.07
373.60 1.07
373.70 1.071
373.80 1.071
373.90 1.071
374.00 1.072
374.10 1.072
374.20 1.073
374.30 1.073
374.40 1.074
374.50 1.074
374.60 1.075
374.70 1.075
374.80 1.076
374.90 1.076
375.00 1.076
375.10 1.077
375.20 1.077
375.30 1.078
375.40 1.078
375.50 1.079
375.60 1.079
375.70 1.08
375.80 1.08
375.90 1.081
376.00 1.081
376.10 1.081
376.20 1.082
376.30 1.082
376.40 1.083
376.50 1.083
376.60 1.083
376.70 1.084
376.80 1.084
376.90 1.084
377.00 1.085
377.10 1.085
377.20 1.085
377.30 1.085
377.40 1.086
377.50 1.086
377.60 1.086
377.70 1.086
377.80 1.086
377.90 1.087
378.00 1.087
378.10 1.086
378.20 1.085
378.30 1.084
378.40 1.083
378.50 1.082
378.60 1.081
378.70 1.08
378.80 1.08
378.90 1.079
379.00 1.078
379.10 1.074
379.20 1.07
379.30 1.066
379.40 1.063
379.50 1.059
379.60 1.055
379.70 1.051
379.80 1.048
379.90 1.044
380.00 1.04
380.10 1.045
380.20 1.05
380.30 1.055
380.40 1.06
380.50 1.065
380.60 1.07
380.70 1.075
380.80 1.08
380.90 1.085
381.00 1.09
381.10 1.09
381.20 1.091
381.30 1.092
381.40 1.093
381.50 1.093
381.60 1.094
381.70 1.094
381.80 1.094
381.90 1.093
382.00 1.093
382.10 1.093
382.20 1.092
382.30 1.086
382.40 1.081
382.50 1.076
382.60 1.07
382.70 1.065
382.80 1.059
382.90 1.054
383.00 1.049
383.10 1.043
383.20 1.038
383.30 1.017
383.40 0.9856
383.50 0.9191
383.60 0.9416
383.70 0.9945
383.80 1.023
383.90 1.043
384.00 1.057
384.10 1.067
384.20 1.074
384.30 1.08
384.40 1.085
384.50 1.088
384.60 1.091
384.70 1.094
384.80 1.095
384.90 1.097
385.00 1.098
385.10 1.099
385.20 1.1
385.30 1.1
385.40 1.101
385.50 1.102
385.60 1.102
385.70 1.102
385.80 1.103
385.90 1.103
386.00 1.103
386.10 1.103
386.20 1.103
386.30 1.103
386.40 1.103
386.50 1.103
386.60 1.103
386.70 1.103
386.80 1.103
386.90 1.103
387.00 1.102
387.10 1.102
387.20 1.101
387.30 1.101
387.40 1.1
387.50 1.098
387.60 1.097
387.70 1.095
387.80 1.093
387.90 1.09
388.00 1.086
388.10 1.08
388.20 1.073
388.30 1.064
388.40 1.05
388.50 1.031
388.60 1.007
388.70 0.9627
388.80 0.8755
388.90 0.7456
389.00 0.8714
389.10 0.9578
389.20 1.005
389.30 1.03
389.40 1.049
389.50 1.064
389.60 1.073
389.70 1.081
389.80 1.087
389.90 1.091
390.00 1.094
390.10 1.097
390.20 1.099
390.30 1.101
390.40 1.102
390.50 1.103
390.60 1.104
390.70 1.105
390.80 1.105
390.90 1.106
391.00 1.106
391.10 1.107
391.20 1.107
391.30 1.107
391.40 1.108
391.50 1.108
391.60 1.108
391.70 1.108
391.80 1.109
391.90 1.109
392.00 1.109
392.10 1.109
392.20 1.109
392.30 1.109
392.40 1.109
392.50 1.109
392.60 1.109
392.70 1.109
392.80 1.109
392.90 1.109
393.00 1.11
393.10 1.11
393.20 1.11
393.30 1.11
393.40 1.11
393.50 1.109
393.60 1.109
393.70 1.109
393.80 1.109
393.90 1.109
394.00 1.109
394.10 1.109
394.20 1.109
394.30 1.109
394.40 1.109
394.50 1.108
394.60 1.108
394.70 1.108
394.80 1.107
394.90 1.107
395.00 1.107
395.10 1.106
395.20 1.105
395.30 1.104
395.40 1.104
395.50 1.102
395.60 1.101
395.70 1.099
395.80 1.097
395.90 1.094
396.00 1.09
396.10 1.085
396.20 1.078
396.30 1.069
396.40 1.058
396.50 1.04
396.60 1.015
396.70 0.9836
396.80 0.9206
396.90 0.79
397.00 0.5919
397.10 0.7812
397.20 0.9099
397.30 0.9779
397.40 1.012
397.50 1.038
397.60 1.057
397.70 1.069
397.80 1.078
397.90 1.085
398.00 1.09
398.10 1.094
398.20 1.097
398.30 1.099
398.40 1.101
398.50 1.103
398.60 1.104
398.70 1.105
398.80 1.106
398.90 1.107
399.00 1.107
399.10 1.108
399.20 1.108
399.30 1.109
399.40 1.109
399.50 1.109
399.60 1.109
399.70 1.11
399.80 1.11
399.90 1.11
400.00 1.11
400.10 1.11
400.20 1.11
400.30 1.111
400.40 1.111
400.50 1.111
400.60 1.111
400.70 1.111
400.80 1.111
400.90 1.111
401.00 1.111
401.10 1.111
401.20 1.111
401.30 1.111
401.40 1.111
401.50 1.111
401.60 1.111
401.70 1.111
401.80 1.111
401.90 1.111
402.00 1.111
402.10 1.111
402.20 1.111
402.30 1.111
402.40 1.111
402.50 1.111
402.60 1.111
402.70 1.111
402.80 1.111
402.90 1.111
403.00 1.111
403.10 1.111
403.20 1.111
403.30 1.111
403.40 1.111
403.50 1.111
403.60 1.111
403.70 1.111
403.80 1.111
403.90 1.111
404.00 1.111
404.10 1.111
404.20 1.111
404.30 1.111
404.40 1.111
404.50 1.111
404.60 1.111
404.70 1.111
404.80 1.111
404.90 1.111
405.00 1.111
405.10 1.111
405.20 1.111
405.30 1.111
405.40 1.11
405.50 1.11
405.60 1.11
405.70 1.11
405.80 1.11
405.90 1.11
406.00 1.11
406.10 1.11
406.20 1.11
406.30 1.11
406.40 1.11
406.50 1.109
406.60 1.109
406.70 1.109
406.80 1.109
406.90 1.109
407.00 1.109
407.10 1.109
407.20 1.108
407.30 1.108
407.40 1.108
407.50 1.108
407.60 1.107
407.70 1.107
407.80 1.107
407.90 1.106
408.00 1.106
408.10 1.105
408.20 1.104
408.30 1.103
408.40 1.103
408.50 1.101
408.60 1.1
408.70 1.099
408.80 1.097
408.90 1.094
409.00 1.092
409.10 1.088
409.20 1.083
409.30 1.077
409.40 1.069
409.50 1.057
409.60 1.043
409.70 1.02
409.80 0.9858
409.90 0.9422
410.00 0.8457
410.10 0.7095
410.20 0.5338
410.30 0.7553
410.40 0.9011
410.50 0.9711
410.60 1.006
410.70 1.033
410.80 1.052
410.90 1.064
411.00 1.073
411.10 1.081
411.20 1.085
411.30 1.089
411.40 1.093
411.50 1.095
411.60 1.097
411.70 1.099
411.80 1.1
411.90 1.101
412.00 1.102
412.10 1.103
412.20 1.103
412.30 1.104
412.40 1.104
412.50 1.105
412.60 1.105
412.70 1.105
412.80 1.106
412.90 1.106
413.00 1.106
413.10 1.106
413.20 1.106
413.30 1.106
413.40 1.106
413.50 1.106
413.60 1.107
413.70 1.107
413.80 1.107
413.90 1.107
414.00 1.107
414.10 1.107
414.20 1.107
414.30 1.107
414.40 1.107
414.50 1.107
414.60 1.107
414.70 1.107
414.80 1.107
414.90 1.107
415.00 1.107
415.10 1.107
415.20 1.107
415.30 1.107
415.40 1.107
415.50 1.107
415.60 1.107
415.70 1.107
415.80 1.107
415.90 1.107
416.00 1.107
416.10 1.107
416.20 1.107
416.30 1.106
416.40 1.106
416.50 1.106
416.60 1.106
416.70 1.106
416.80 1.106
416.90 1.106
417.00 1.106
417.10 1.106
417.20 1.106
417.30 1.106
417.40 1.106
417.50 1.106
417.60 1.106
417.70 1.106
417.80 1.106
417.90 1.106
418.00 1.106
418.10 1.106
418.20 1.106
418.30 1.105
418.40 1.105
418.50 1.105
418.60 1.105
418.70 1.105
418.80 1.105
418.90 1.105
419.00 1.105
419.10 1.105
419.20 1.105
419.30 1.105
419.40 1.105
419.50 1.105
419.60 1.105
419.70 1.105
419.80 1.105
419.90 1.104
420.00 1.104
420.10 1.104
420.20 1.104
420.30 1.104
420.40 1.104
420.50 1.104
420.60 1.104
420.70 1.104
420.80 1.104
420.90 1.104
421.00 1.104
421.10 1.104
421.20 1.104
421.30 1.104
421.40 1.104
421.50 1.103
421.60 1.103
421.70 1.103
421.80 1.103
421.90 1.103
422.00 1.103
422.10 1.103
422.20 1.103
422.30 1.103
422.40 1.103
422.50 1.103
422.60 1.103
422.70 1.103
422.80 1.103
422.90 1.102
423.00 1.102
423.10 1.102
423.20 1.102
423.30 1.102
423.40 1.102
423.50 1.102
423.60 1.102
423.70 1.102
423.80 1.102
423.90 1.102
424.00 1.102
424.10 1.102
424.20 1.101
424.30 1.101
424.40 1.101
424.50 1.101
424.60 1.101
424.70 1.101
424.80 1.101
424.90 1.101
425.00 1.101
425.10 1.101
425.20 1.101
425.30 1.101
425.40 1.101
425.50 1.1
425.60 1.1
425.70 1.1
425.80 1.1
425.90 1.1
426.00 1.1
426.10 1.1
426.20 1.1
426.30 1.1
426.40 1.1
426.50 1.1
426.60 1.1
426.70 1.099
426.80 1.099
426.90 1.099
427.00 1.099
427.10 1.099
427.20 1.099
427.30 1.099
427.40 1.099
427.50 1.099
427.60 1.099
427.70 1.099
427.80 1.098
427.90 1.098
428.00 1.098
428.10 1.098
428.20 1.098
428.30 1.098
428.40 1.098
428.50 1.098
428.60 1.098
428.70 1.097
428.80 1.097
428.90 1.097
429.00 1.097
429.10 1.097
429.20 1.097
429.30 1.097
429.40 1.097
429.50 1.096
429.60 1.096
429.70 1.096
429.80 1.096
429.90 1.096
430.00 1.095
430.10 1.095
430.20 1.095
430.30 1.095
430.40 1.095
430.50 1.094
430.60 1.094
430.70 1.094
430.80 1.094
430.90 1.093
431.00 1.093
431.10 1.093
431.20 1.093
431.30 1.092
431.40 1.092
431.50 1.091
431.60 1.091
431.70 1.09
431.80 1.09
431.90 1.089
432.00 1.088
432.10 1.088
432.20 1.087
432.30 1.085
432.40 1.084
432.50 1.082
432.60 1.081
432.70 1.078
432.80 1.075
432.90 1.072
433.00 1.068
433.10 1.062
433.20 1.054
433.30 1.046
433.40 1.032
433.50 1.013
433.60 0.9897
433.70 0.9474
433.80 0.88
433.90 0.7875
434.00 0.5005
434.10 0.5045
434.20 0.7989
434.30 0.8869
434.40 0.9512
434.50 0.9918
434.60 1.014
434.70 1.032
434.80 1.046
434.90 1.054
435.00 1.061
435.10 1.066
435.20 1.07
435.30 1.073
435.40 1.076
435.50 1.078
435.60 1.08
435.70 1.081
435.80 1.083
435.90 1.083
436.00 1.084
436.10 1.085
436.20 1.085
436.30 1.086
436.40 1.086
436.50 1.087
436.60 1.087
436.70 1.087
436.80 1.087
436.90 1.087
437.00 1.087
437.10 1.088
437.20 1.088
437.30 1.088
437.40 1.088
437.50 1.088
437.60 1.088
437.70 1.088
437.80 1.088
437.90 1.088
438.00 1.088
438.10 1.088
438.20 1.088
438.30 1.088
438.40 1.088
438.50 1.088
438.60 1.088
438.70 1.088
438.80 1.088
438.90 1.088
439.00 1.088
439.10 1.088
439.20 1.087
439.30 1.087
439.40 1.087
439.50 1.087
439.60 1.087
439.70 1.087
439.80 1.087
439.90 1.087
440.00 1.087
440.10 1.087
440.20 1.087
440.30 1.087
440.40 1.087
440.50 1.086
440.60 1.086
440.70 1.086
440.80 1.086
440.90 1.086
441.00 1.086
441.10 1.086
441.20 1.086
441.30 1.086
441.40 1.086
441.50 1.085
441.60 1.085
441.70 1.085
441.80 1.085
441.90 1.085
442.00 1.085
442.10 1.085
442.20 1.085
442.30 1.085
442.40 1.084
442.50 1.084
442.60 1.084
442.70 1.084
442.80 1.084
442.90 1.084
443.00 1.084
443.10 1.084
443.20 1.084
443.30 1.083
443.40 1.083
443.50 1.083
443.60 1.083
443.70 1.083
443.80 1.083
443.90 1.083
444.00 1.083
444.10 1.083
444.20 1.082
444.30 1.082
444.40 1.082
444.50 1.082
444.60 1.082
444.70 1.082
444.80 1.082
444.90 1.082
445.00 1.082
445.10 1.081
445.20 1.081
445.30 1.081
445.40 1.081
445.50 1.081
445.60 1.081
445.70 1.081
445.80 1.081
445.90 1.081
446.00 1.08
446.10 1.08
446.20 1.08
446.30 1.08
446.40 1.08
446.50 1.08
446.60 1.08
446.70 1.08
446.80 1.08
446.90 1.079
447.00 1.079
447.10 1.079
447.20 1.079
447.30 1.079
447.40 1.079
447.50 1.079
447.60 1.079
447.70 1.078
447.80 1.078
447.90 1.078
448.00 1.078
448.10 1.078
448.20 1.078
448.30 1.078
448.40 1.078
448.50 1.078
448.60 1.077
448.70 1.077
448.80 1.077
448.90 1.077
449.00 1.077
449.10 1.077
449.20 1.077
449.30 1.077
449.40 1.076
449.50 1.076
449.60 1.076
449.70 1.076
449.80 1.076
449.90 1.076
450.00 1.076
450.10 1.076
450.20 1.075
450.30 1.075
450.40 1.075
450.50 1.075
450.60 1.075
450.70 1.075
450.80 1.075
450.90 1.075
451.00 1.074
451.10 1.074
451.20 1.074
451.30 1.074
451.40 1.074
451.50 1.074
451.60 1.074
