# Version 2.1 - nm, norm@500 to 1, cut digits, bergeron_7000_95.dat_7000
# Wavelength(nm)  Flambda(ergs/cm^s/s/nm)
300.00 1.059
300.10 1.059
300.20 1.06
300.30 1.06
300.40 1.06
300.50 1.061
300.60 1.061
300.70 1.061
300.80 1.062
300.90 1.062
301.00 1.062
301.10 1.063
301.20 1.063
301.30 1.063
301.40 1.064
301.50 1.064
301.60 1.064
301.70 1.065
301.80 1.065
301.90 1.065
302.00 1.066
302.10 1.066
302.20 1.067
302.30 1.067
302.40 1.067
302.50 1.068
302.60 1.068
302.70 1.068
302.80 1.069
302.90 1.069
303.00 1.069
303.10 1.07
303.20 1.07
303.30 1.07
303.40 1.071
303.50 1.071
303.60 1.071
303.70 1.071
303.80 1.072
303.90 1.072
304.00 1.072
304.10 1.073
304.20 1.073
304.30 1.073
304.40 1.074
304.50 1.074
304.60 1.074
304.70 1.075
304.80 1.075
304.90 1.075
305.00 1.076
305.10 1.076
305.20 1.076
305.30 1.077
305.40 1.077
305.50 1.077
305.60 1.078
305.70 1.078
305.80 1.078
305.90 1.079
306.00 1.079
306.10 1.079
306.20 1.08
306.30 1.08
306.40 1.08
306.50 1.08
306.60 1.081
306.70 1.081
306.80 1.081
306.90 1.082
307.00 1.082
307.10 1.082
307.20 1.083
307.30 1.083
307.40 1.083
307.50 1.084
307.60 1.084
307.70 1.084
307.80 1.084
307.90 1.085
308.00 1.085
308.10 1.085
308.20 1.086
308.30 1.086
308.40 1.086
308.50 1.087
308.60 1.087
308.70 1.087
308.80 1.087
308.90 1.088
309.00 1.088
309.10 1.088
309.20 1.089
309.30 1.089
309.40 1.089
309.50 1.09
309.60 1.09
309.70 1.09
309.80 1.09
309.90 1.091
310.00 1.091
310.10 1.091
310.20 1.092
310.30 1.092
310.40 1.092
310.50 1.092
310.60 1.093
310.70 1.093
310.80 1.093
310.90 1.094
311.00 1.094
311.10 1.094
311.20 1.094
311.30 1.095
311.40 1.095
311.50 1.095
311.60 1.096
311.70 1.096
311.80 1.096
311.90 1.096
312.00 1.097
312.10 1.097
312.20 1.097
312.30 1.098
312.40 1.098
312.50 1.098
312.60 1.098
312.70 1.099
312.80 1.099
312.90 1.099
313.00 1.099
313.10 1.1
313.20 1.1
313.30 1.1
313.40 1.101
313.50 1.101
313.60 1.101
313.70 1.101
313.80 1.102
313.90 1.102
314.00 1.102
314.10 1.102
314.20 1.103
314.30 1.103
314.40 1.103
314.50 1.104
314.60 1.104
314.70 1.104
314.80 1.104
314.90 1.105
315.00 1.105
315.10 1.105
315.20 1.105
315.30 1.106
315.40 1.106
315.50 1.106
315.60 1.106
315.70 1.107
315.80 1.107
315.90 1.107
316.00 1.107
316.10 1.108
316.20 1.108
316.30 1.108
316.40 1.108
316.50 1.109
316.60 1.109
316.70 1.109
316.80 1.109
316.90 1.11
317.00 1.11
317.10 1.11
317.20 1.11
317.30 1.111
317.40 1.111
317.50 1.111
317.60 1.111
317.70 1.112
317.80 1.112
317.90 1.112
318.00 1.112
318.10 1.113
318.20 1.113
318.30 1.113
318.40 1.113
318.50 1.114
318.60 1.114
318.70 1.114
318.80 1.114
318.90 1.115
319.00 1.115
319.10 1.115
319.20 1.115
319.30 1.116
319.40 1.116
319.50 1.116
319.60 1.116
319.70 1.117
319.80 1.117
319.90 1.117
320.00 1.117
320.10 1.117
320.20 1.118
320.30 1.118
320.40 1.118
320.50 1.118
320.60 1.119
320.70 1.119
320.80 1.119
320.90 1.119
321.00 1.12
321.10 1.12
321.20 1.12
321.30 1.12
321.40 1.12
321.50 1.121
321.60 1.121
321.70 1.121
321.80 1.121
321.90 1.122
322.00 1.122
322.10 1.122
322.20 1.122
322.30 1.122
322.40 1.123
322.50 1.123
322.60 1.123
322.70 1.123
322.80 1.124
322.90 1.124
323.00 1.124
323.10 1.124
323.20 1.124
323.30 1.125
323.40 1.125
323.50 1.125
323.60 1.125
323.70 1.125
323.80 1.126
323.90 1.126
324.00 1.126
324.10 1.126
324.20 1.127
324.30 1.127
324.40 1.127
324.50 1.127
324.60 1.127
324.70 1.128
324.80 1.128
324.90 1.128
325.00 1.128
325.10 1.128
325.20 1.129
325.30 1.129
325.40 1.129
325.50 1.129
325.60 1.129
325.70 1.13
325.80 1.13
325.90 1.13
326.00 1.13
326.10 1.13
326.20 1.131
326.30 1.131
326.40 1.131
326.50 1.131
326.60 1.131
326.70 1.132
326.80 1.132
326.90 1.132
327.00 1.132
327.10 1.132
327.20 1.133
327.30 1.133
327.40 1.133
327.50 1.133
327.60 1.133
327.70 1.134
327.80 1.134
327.90 1.134
328.00 1.134
328.10 1.134
328.20 1.135
328.30 1.135
328.40 1.135
328.50 1.135
328.60 1.135
328.70 1.135
328.80 1.136
328.90 1.136
329.00 1.136
329.10 1.136
329.20 1.136
329.30 1.137
329.40 1.137
329.50 1.137
329.60 1.137
329.70 1.137
329.80 1.138
329.90 1.138
330.00 1.138
330.10 1.138
330.20 1.138
330.30 1.138
330.40 1.139
330.50 1.139
330.60 1.139
330.70 1.139
330.80 1.139
330.90 1.139
331.00 1.14
331.10 1.14
331.20 1.14
331.30 1.14
331.40 1.14
331.50 1.141
331.60 1.141
331.70 1.141
331.80 1.141
331.90 1.141
332.00 1.141
332.10 1.142
332.20 1.142
332.30 1.142
332.40 1.142
332.50 1.142
332.60 1.142
332.70 1.143
332.80 1.143
332.90 1.143
333.00 1.143
333.10 1.143
333.20 1.143
333.30 1.144
333.40 1.144
333.50 1.144
333.60 1.144
333.70 1.144
333.80 1.144
333.90 1.144
334.00 1.145
334.10 1.145
334.20 1.145
334.30 1.145
334.40 1.145
334.50 1.145
334.60 1.146
334.70 1.146
334.80 1.146
334.90 1.146
335.00 1.146
335.10 1.146
335.20 1.147
335.30 1.147
335.40 1.147
335.50 1.147
335.60 1.147
335.70 1.147
335.80 1.147
335.90 1.148
336.00 1.148
336.10 1.148
336.20 1.148
336.30 1.148
336.40 1.148
336.50 1.148
336.60 1.149
336.70 1.149
336.80 1.149
336.90 1.149
337.00 1.149
337.10 1.149
337.20 1.149
337.30 1.15
337.40 1.15
337.50 1.15
337.60 1.15
337.70 1.15
337.80 1.15
337.90 1.15
338.00 1.151
338.10 1.151
338.20 1.151
338.30 1.151
338.40 1.151
338.50 1.151
338.60 1.151
338.70 1.152
338.80 1.152
338.90 1.152
339.00 1.152
339.10 1.152
339.20 1.152
339.30 1.152
339.40 1.153
339.50 1.153
339.60 1.153
339.70 1.153
339.80 1.153
339.90 1.153
340.00 1.153
340.10 1.153
340.20 1.154
340.30 1.154
340.40 1.154
340.50 1.154
340.60 1.154
340.70 1.154
340.80 1.154
340.90 1.154
341.00 1.155
341.10 1.155
341.20 1.155
341.30 1.155
341.40 1.155
341.50 1.155
341.60 1.155
341.70 1.155
341.80 1.156
341.90 1.156
342.00 1.156
342.10 1.156
342.20 1.156
342.30 1.156
342.40 1.156
342.50 1.156
342.60 1.157
342.70 1.157
342.80 1.157
342.90 1.157
343.00 1.157
343.10 1.157
343.20 1.157
343.30 1.157
343.40 1.157
343.50 1.158
343.60 1.158
343.70 1.158
343.80 1.158
343.90 1.158
344.00 1.158
344.10 1.158
344.20 1.158
344.30 1.158
344.40 1.159
344.50 1.159
344.60 1.159
344.70 1.159
344.80 1.159
344.90 1.159
345.00 1.159
345.10 1.159
345.20 1.159
345.30 1.16
345.40 1.16
345.50 1.16
345.60 1.16
345.70 1.16
345.80 1.16
345.90 1.16
346.00 1.16
346.10 1.16
346.20 1.16
346.30 1.161
346.40 1.161
346.50 1.161
346.60 1.161
346.70 1.161
346.80 1.161
346.90 1.161
347.00 1.161
347.10 1.161
347.20 1.161
347.30 1.162
347.40 1.162
347.50 1.162
347.60 1.162
347.70 1.162
347.80 1.162
347.90 1.162
348.00 1.162
348.10 1.162
348.20 1.162
348.30 1.162
348.40 1.163
348.50 1.163
348.60 1.163
348.70 1.163
348.80 1.163
348.90 1.163
349.00 1.163
349.10 1.163
349.20 1.163
349.30 1.163
349.40 1.163
349.50 1.164
349.60 1.164
349.70 1.164
349.80 1.164
349.90 1.164
350.00 1.164
350.10 1.164
350.20 1.164
350.30 1.164
350.40 1.164
350.50 1.164
350.60 1.164
350.70 1.165
350.80 1.165
350.90 1.165
351.00 1.165
351.10 1.165
351.20 1.165
351.30 1.165
351.40 1.165
351.50 1.165
351.60 1.165
351.70 1.165
351.80 1.165
351.90 1.165
352.00 1.166
352.10 1.166
352.20 1.166
352.30 1.166
352.40 1.166
352.50 1.166
352.60 1.166
352.70 1.166
352.80 1.166
352.90 1.166
353.00 1.166
353.10 1.166
353.20 1.166
353.30 1.166
353.40 1.167
353.50 1.167
353.60 1.167
353.70 1.167
353.80 1.167
353.90 1.167
354.00 1.167
354.10 1.167
354.20 1.167
354.30 1.167
354.40 1.167
354.50 1.167
354.60 1.167
354.70 1.167
354.80 1.167
354.90 1.168
355.00 1.168
355.10 1.168
355.20 1.168
355.30 1.168
355.40 1.168
355.50 1.168
355.60 1.168
355.70 1.168
355.80 1.168
355.90 1.168
356.00 1.168
356.10 1.168
356.20 1.168
356.30 1.168
356.40 1.168
356.50 1.168
356.60 1.169
356.70 1.169
356.80 1.169
356.90 1.169
357.00 1.169
357.10 1.169
357.20 1.169
357.30 1.169
357.40 1.169
357.50 1.169
357.60 1.169
357.70 1.169
357.80 1.169
357.90 1.169
358.00 1.169
358.10 1.169
358.20 1.169
358.30 1.169
358.40 1.169
358.50 1.169
358.60 1.17
358.70 1.17
358.80 1.17
358.90 1.17
359.00 1.17
359.10 1.17
359.20 1.17
359.30 1.17
359.40 1.17
359.50 1.17
359.60 1.17
359.70 1.17
359.80 1.17
359.90 1.17
360.00 1.17
360.10 1.17
360.20 1.17
360.30 1.17
360.40 1.17
360.50 1.17
360.60 1.17
360.70 1.17
360.80 1.17
360.90 1.171
361.00 1.171
361.10 1.171
361.20 1.171
361.30 1.171
361.40 1.171
361.50 1.171
361.60 1.171
361.70 1.171
361.80 1.171
361.90 1.171
362.00 1.171
362.10 1.171
362.20 1.171
362.30 1.171
362.40 1.171
362.50 1.171
362.60 1.171
362.70 1.171
362.80 1.171
362.90 1.171
363.00 1.171
363.10 1.171
363.20 1.171
363.30 1.171
363.40 1.171
363.50 1.171
363.60 1.171
363.70 1.171
363.80 1.171
363.90 1.171
364.00 1.172
364.10 1.172
364.20 1.172
364.30 1.172
364.40 1.172
364.50 1.172
364.60 1.172
364.70 1.172
364.80 1.172
364.90 1.172
365.00 1.172
365.10 1.172
365.20 1.172
365.30 1.172
365.40 1.172
365.50 1.172
365.60 1.172
365.70 1.172
365.80 1.172
365.90 1.172
366.00 1.172
366.10 1.172
366.20 1.172
366.30 1.172
366.40 1.172
366.50 1.172
366.60 1.172
366.70 1.172
366.80 1.172
366.90 1.172
367.00 1.172
367.10 1.172
367.20 1.172
367.30 1.172
367.40 1.172
367.50 1.172
367.60 1.172
367.70 1.172
367.80 1.172
367.90 1.172
368.00 1.172
368.10 1.172
368.20 1.172
368.30 1.172
368.40 1.172
368.50 1.172
368.60 1.172
368.70 1.172
368.80 1.172
368.90 1.172
369.00 1.172
369.10 1.172
369.20 1.172
369.30 1.172
369.40 1.172
369.50 1.172
369.60 1.172
369.70 1.172
369.80 1.172
369.90 1.172
370.00 1.172
370.10 1.172
370.20 1.172
370.30 1.172
370.40 1.172
370.50 1.172
370.60 1.172
370.70 1.172
370.80 1.172
370.90 1.172
371.00 1.172
371.10 1.172
371.20 1.172
371.30 1.172
371.40 1.172
371.50 1.172
371.60 1.172
371.70 1.172
371.80 1.172
371.90 1.172
372.00 1.172
372.10 1.172
372.20 1.172
372.30 1.172
372.40 1.172
372.50 1.172
372.60 1.172
372.70 1.172
372.80 1.172
372.90 1.172
373.00 1.172
373.10 1.172
373.20 1.172
373.30 1.172
373.40 1.172
373.50 1.172
373.60 1.172
373.70 1.172
373.80 1.172
373.90 1.172
374.00 1.172
374.10 1.172
374.20 1.172
374.30 1.172
374.40 1.172
374.50 1.172
374.60 1.172
374.70 1.172
374.80 1.172
374.90 1.172
375.00 1.172
375.10 1.172
375.20 1.172
375.30 1.172
375.40 1.172
375.50 1.172
375.60 1.172
375.70 1.172
375.80 1.172
375.90 1.172
376.00 1.172
376.10 1.172
376.20 1.172
376.30 1.172
376.40 1.172
376.50 1.172
376.60 1.172
376.70 1.172
376.80 1.172
376.90 1.172
377.00 1.172
377.10 1.172
377.20 1.172
377.30 1.172
377.40 1.172
377.50 1.172
377.60 1.171
377.70 1.171
377.80 1.171
377.90 1.171
378.00 1.171
378.10 1.171
378.20 1.171
378.30 1.171
378.40 1.171
378.50 1.171
378.60 1.171
378.70 1.171
378.80 1.171
378.90 1.171
379.00 1.171
379.10 1.171
379.20 1.171
379.30 1.171
379.40 1.171
379.50 1.171
379.60 1.171
379.70 1.171
379.80 1.171
379.90 1.171
380.00 1.171
380.10 1.171
380.20 1.171
380.30 1.171
380.40 1.171
380.50 1.171
380.60 1.171
380.70 1.171
380.80 1.171
380.90 1.171
381.00 1.171
381.10 1.17
381.20 1.17
381.30 1.17
381.40 1.17
381.50 1.17
381.60 1.17
381.70 1.17
381.80 1.17
381.90 1.17
382.00 1.17
382.10 1.17
382.20 1.17
382.30 1.17
382.40 1.17
382.50 1.17
382.60 1.17
382.70 1.17
382.80 1.17
382.90 1.17
383.00 1.169
383.10 1.169
383.20 1.169
383.30 1.169
383.40 1.169
383.50 1.168
383.60 1.168
383.70 1.169
383.80 1.169
383.90 1.169
384.00 1.169
384.10 1.169
384.20 1.169
384.30 1.169
384.40 1.169
384.50 1.169
384.60 1.169
384.70 1.169
384.80 1.169
384.90 1.169
385.00 1.169
385.10 1.169
385.20 1.169
385.30 1.169
385.40 1.169
385.50 1.169
385.60 1.169
385.70 1.169
385.80 1.169
385.90 1.169
386.00 1.169
386.10 1.169
386.20 1.169
386.30 1.169
386.40 1.168
386.50 1.168
386.60 1.168
386.70 1.168
386.80 1.168
386.90 1.168
387.00 1.168
387.10 1.168
387.20 1.168
387.30 1.168
387.40 1.168
387.50 1.168
387.60 1.168
387.70 1.167
387.80 1.167
387.90 1.167
388.00 1.167
388.10 1.167
388.20 1.167
388.30 1.166
388.40 1.166
388.50 1.166
388.60 1.165
388.70 1.164
388.80 1.163
388.90 1.161
389.00 1.163
389.10 1.164
389.20 1.165
389.30 1.165
389.40 1.166
389.50 1.166
389.60 1.166
389.70 1.166
389.80 1.166
389.90 1.167
390.00 1.167
390.10 1.167
390.20 1.167
390.30 1.167
390.40 1.167
390.50 1.167
390.60 1.167
390.70 1.167
390.80 1.167
390.90 1.167
391.00 1.167
391.10 1.167
391.20 1.167
391.30 1.167
391.40 1.167
391.50 1.167
391.60 1.167
391.70 1.167
391.80 1.167
391.90 1.167
392.00 1.167
392.10 1.167
392.20 1.167
392.30 1.167
392.40 1.167
392.50 1.167
392.60 1.166
392.70 1.166
392.80 1.166
392.90 1.166
393.00 1.166
393.10 1.166
393.20 1.166
393.30 1.166
393.40 1.166
393.50 1.166
393.60 1.166
393.70 1.166
393.80 1.166
393.90 1.165
394.00 1.165
394.10 1.165
394.20 1.165
394.30 1.165
394.40 1.165
394.50 1.165
394.60 1.164
394.70 1.164
394.80 1.164
394.90 1.164
395.00 1.164
395.10 1.163
395.20 1.163
395.30 1.163
395.40 1.162
395.50 1.162
395.60 1.162
395.70 1.161
395.80 1.161
395.90 1.16
396.00 1.159
396.10 1.159
396.20 1.158
396.30 1.157
396.40 1.156
396.50 1.155
396.60 1.154
396.70 1.152
396.80 1.15
396.90 1.147
397.00 1.142
397.10 1.147
397.20 1.15
397.30 1.152
397.40 1.153
397.50 1.154
397.60 1.155
397.70 1.156
397.80 1.157
397.90 1.158
398.00 1.158
398.10 1.159
398.20 1.16
398.30 1.16
398.40 1.16
398.50 1.161
398.60 1.161
398.70 1.161
398.80 1.161
398.90 1.162
399.00 1.162
399.10 1.162
399.20 1.162
399.30 1.162
399.40 1.162
399.50 1.162
399.60 1.162
399.70 1.163
399.80 1.163
399.90 1.163
400.00 1.163
400.10 1.163
400.20 1.163
400.30 1.163
400.40 1.163
400.50 1.163
400.60 1.163
400.70 1.163
400.80 1.163
400.90 1.163
401.00 1.163
401.10 1.163
401.20 1.163
401.30 1.163
401.40 1.163
401.50 1.163
401.60 1.162
401.70 1.162
401.80 1.162
401.90 1.162
402.00 1.162
402.10 1.162
402.20 1.162
402.30 1.162
402.40 1.162
402.50 1.162
402.60 1.162
402.70 1.162
402.80 1.162
402.90 1.162
403.00 1.162
403.10 1.162
403.20 1.162
403.30 1.161
403.40 1.161
403.50 1.161
403.60 1.161
403.70 1.161
403.80 1.161
403.90 1.161
404.00 1.161
404.10 1.161
404.20 1.161
404.30 1.16
404.40 1.16
404.50 1.16
404.60 1.16
404.70 1.16
404.80 1.16
404.90 1.16
405.00 1.16
405.10 1.16
405.20 1.159
405.30 1.159
405.40 1.159
405.50 1.159
405.60 1.159
405.70 1.159
405.80 1.158
405.90 1.158
406.00 1.158
406.10 1.158
406.20 1.158
406.30 1.157
406.40 1.157
406.50 1.157
406.60 1.157
406.70 1.156
406.80 1.156
406.90 1.156
407.00 1.156
407.10 1.155
407.20 1.155
407.30 1.155
407.40 1.154
407.50 1.154
407.60 1.153
407.70 1.153
407.80 1.152
407.90 1.152
408.00 1.151
408.10 1.15
408.20 1.15
408.30 1.149
408.40 1.148
408.50 1.147
408.60 1.146
408.70 1.145
408.80 1.143
408.90 1.142
409.00 1.14
409.10 1.138
409.20 1.136
409.30 1.134
409.40 1.131
409.50 1.128
409.60 1.125
409.70 1.121
409.80 1.117
409.90 1.112
410.00 1.105
410.10 1.098
410.20 1.09
410.30 1.1
410.40 1.109
410.50 1.114
410.60 1.118
410.70 1.122
410.80 1.126
410.90 1.129
411.00 1.131
411.10 1.134
411.20 1.136
411.30 1.137
411.40 1.139
411.50 1.14
411.60 1.142
411.70 1.143
411.80 1.144
411.90 1.144
412.00 1.145
412.10 1.146
412.20 1.146
412.30 1.147
412.40 1.147
412.50 1.148
412.60 1.148
412.70 1.149
412.80 1.149
412.90 1.149
413.00 1.149
413.10 1.15
413.20 1.15
413.30 1.15
413.40 1.15
413.50 1.15
413.60 1.15
413.70 1.15
413.80 1.15
413.90 1.15
414.00 1.15
414.10 1.151
414.20 1.151
414.30 1.151
414.40 1.151
414.50 1.151
414.60 1.151
414.70 1.151
414.80 1.151
414.90 1.151
415.00 1.15
415.10 1.15
415.20 1.15
415.30 1.15
415.40 1.15
415.50 1.15
415.60 1.15
415.70 1.15
415.80 1.15
415.90 1.15
416.00 1.15
416.10 1.15
416.20 1.15
416.30 1.15
416.40 1.15
416.50 1.15
416.60 1.149
416.70 1.149
416.80 1.149
416.90 1.149
417.00 1.149
417.10 1.149
417.20 1.149
417.30 1.149
417.40 1.149
417.50 1.149
417.60 1.149
417.70 1.149
417.80 1.148
417.90 1.148
418.00 1.148
418.10 1.148
418.20 1.148
418.30 1.148
418.40 1.148
418.50 1.148
418.60 1.148
418.70 1.147
418.80 1.147
418.90 1.147
419.00 1.147
419.10 1.147
419.20 1.147
419.30 1.147
419.40 1.147
419.50 1.147
419.60 1.146
419.70 1.146
419.80 1.146
419.90 1.146
420.00 1.146
420.10 1.146
420.20 1.146
420.30 1.146
420.40 1.145
420.50 1.145
420.60 1.145
420.70 1.145
420.80 1.145
420.90 1.145
421.00 1.145
421.10 1.145
421.20 1.144
421.30 1.144
421.40 1.144
421.50 1.144
421.60 1.144
421.70 1.144
421.80 1.144
421.90 1.144
422.00 1.143
422.10 1.143
422.20 1.143
422.30 1.143
422.40 1.143
422.50 1.143
422.60 1.143
422.70 1.142
422.80 1.142
422.90 1.142
423.00 1.142
423.10 1.142
423.20 1.142
423.30 1.142
423.40 1.142
423.50 1.141
423.60 1.141
423.70 1.141
423.80 1.141
423.90 1.141
424.00 1.141
424.10 1.141
424.20 1.14
424.30 1.14
424.40 1.14
424.50 1.14
424.60 1.14
424.70 1.14
424.80 1.14
424.90 1.139
425.00 1.139
425.10 1.139
425.20 1.139
425.30 1.139
425.40 1.139
425.50 1.138
425.60 1.138
425.70 1.138
425.80 1.138
425.90 1.138
426.00 1.138
426.10 1.137
426.20 1.137
426.30 1.137
426.40 1.137
426.50 1.137
426.60 1.137
426.70 1.136
426.80 1.136
426.90 1.136
427.00 1.136
427.10 1.136
427.20 1.135
427.30 1.135
427.40 1.135
427.50 1.135
427.60 1.135
427.70 1.134
427.80 1.134
427.90 1.134
428.00 1.134
428.10 1.134
428.20 1.133
428.30 1.133
428.40 1.133
428.50 1.133
428.60 1.132
428.70 1.132
428.80 1.132
428.90 1.132
429.00 1.131
429.10 1.131
429.20 1.131
429.30 1.13
429.40 1.13
429.50 1.13
429.60 1.129
429.70 1.129
429.80 1.129
429.90 1.128
430.00 1.128
430.10 1.128
430.20 1.127
430.30 1.127
430.40 1.126
430.50 1.126
430.60 1.125
430.70 1.125
430.80 1.124
430.90 1.123
431.00 1.123
431.10 1.122
431.20 1.121
431.30 1.12
431.40 1.12
431.50 1.119
431.60 1.118
431.70 1.116
431.80 1.115
431.90 1.114
432.00 1.112
432.10 1.111
432.20 1.109
432.30 1.107
432.40 1.104
432.50 1.102
432.60 1.099
432.70 1.096
432.80 1.092
432.90 1.088
433.00 1.084
433.10 1.078
433.20 1.072
433.30 1.066
433.40 1.057
433.50 1.048
433.60 1.037
433.70 1.024
433.80 1.009
433.90 0.9924
434.00 0.9612
434.10 0.9616
434.20 0.9937
434.30 1.01
434.40 1.025
434.50 1.037
434.60 1.048
434.70 1.057
434.80 1.065
434.90 1.071
435.00 1.077
435.10 1.082
435.20 1.086
435.30 1.089
435.40 1.093
435.50 1.095
435.60 1.098
435.70 1.1
435.80 1.102
435.90 1.104
436.00 1.105
436.10 1.107
436.20 1.108
436.30 1.109
436.40 1.11
436.50 1.111
436.60 1.111
436.70 1.112
436.80 1.113
436.90 1.113
437.00 1.114
437.10 1.114
437.20 1.114
437.30 1.115
437.40 1.115
437.50 1.115
437.60 1.115
437.70 1.116
437.80 1.116
437.90 1.116
438.00 1.116
438.10 1.116
438.20 1.116
438.30 1.116
438.40 1.116
438.50 1.116
438.60 1.116
438.70 1.116
438.80 1.116
438.90 1.116
439.00 1.116
439.10 1.116
439.20 1.116
439.30 1.116
439.40 1.116
439.50 1.116
439.60 1.116
439.70 1.116
439.80 1.116
439.90 1.116
440.00 1.116
440.10 1.116
440.20 1.115
440.30 1.115
440.40 1.115
440.50 1.115
440.60 1.115
440.70 1.115
440.80 1.115
440.90 1.115
441.00 1.115
441.10 1.115
441.20 1.114
441.30 1.114
441.40 1.114
441.50 1.114
441.60 1.114
441.70 1.114
441.80 1.114
441.90 1.114
442.00 1.113
442.10 1.113
442.20 1.113
442.30 1.113
442.40 1.113
442.50 1.113
442.60 1.113
442.70 1.112
442.80 1.112
442.90 1.112
443.00 1.112
443.10 1.112
443.20 1.112
443.30 1.112
443.40 1.111
443.50 1.111
443.60 1.111
443.70 1.111
443.80 1.111
443.90 1.111
444.00 1.11
444.10 1.11
444.20 1.11
444.30 1.11
444.40 1.11
444.50 1.11
444.60 1.11
444.70 1.109
444.80 1.109
444.90 1.109
445.00 1.109
445.10 1.109
445.20 1.109
445.30 1.108
445.40 1.108
445.50 1.108
445.60 1.108
445.70 1.108
445.80 1.108
445.90 1.107
446.00 1.107
446.10 1.107
446.20 1.107
446.30 1.107
446.40 1.107
446.50 1.106
446.60 1.106
446.70 1.106
446.80 1.106
446.90 1.106
447.00 1.106
447.10 1.105
447.20 1.105
447.30 1.105
447.40 1.105
447.50 1.105
447.60 1.105
447.70 1.104
447.80 1.104
447.90 1.104
448.00 1.104
448.10 1.104
448.20 1.104
448.30 1.103
448.40 1.103
448.50 1.103
448.60 1.103
448.70 1.103
448.80 1.103
448.90 1.103
449.00 1.102
449.10 1.102
449.20 1.102
449.30 1.102
449.40 1.102
449.50 1.101
449.60 1.101
449.70 1.101
449.80 1.101
449.90 1.101
450.00 1.101
450.10 1.1
450.20 1.1
450.30 1.1
450.40 1.1
450.50 1.1
450.60 1.099
450.70 1.099
450.80 1.099
450.90 1.099
451.00 1.099
451.10 1.099
451.20 1.098
451.30 1.098
451.40 1.098
451.50 1.098
451.60 1.098
451.70 1.098
451.80 1.097
451.90 1.097
452.00 1.097
452.10 1.097
452.20 1.097
452.30 1.097
452.40 1.096
452.50 1.096
452.60 1.096
452.70 1.096
452.80 1.096
452.90 1.095
453.00 1.095
453.10 1.095
453.20 1.095
453.30 1.095
453.40 1.095
453.50 1.094
453.60 1.094
453.70 1.094
453.80 1.094
453.90 1.094
454.00 1.093
454.10 1.093
454.20 1.093
