# Version 2.1 - nm, norm@500 to 1, cut digits, bergeron_100000_90.dat_100000
# Wavelength(nm)  Flambda(ergs/cm^s/s/nm)
300.00 6.858
300.10 6.85
300.20 6.841
300.30 6.832
300.40 6.824
300.50 6.815
300.60 6.807
300.70 6.798
300.80 6.79
300.90 6.781
301.00 6.773
301.10 6.764
301.20 6.756
301.30 6.747
301.40 6.739
301.50 6.73
301.60 6.722
301.70 6.714
301.80 6.705
301.90 6.697
302.00 6.688
302.10 6.68
302.20 6.672
302.30 6.663
302.40 6.655
302.50 6.647
302.60 6.638
302.70 6.63
302.80 6.622
302.90 6.614
303.00 6.605
303.10 6.597
303.20 6.589
303.30 6.581
303.40 6.573
303.50 6.564
303.60 6.556
303.70 6.548
303.80 6.54
303.90 6.532
304.00 6.524
304.10 6.516
304.20 6.508
304.30 6.5
304.40 6.491
304.50 6.483
304.60 6.475
304.70 6.467
304.80 6.459
304.90 6.451
305.00 6.443
305.10 6.435
305.20 6.427
305.30 6.42
305.40 6.412
305.50 6.404
305.60 6.396
305.70 6.388
305.80 6.38
305.90 6.372
306.00 6.364
306.10 6.356
306.20 6.349
306.30 6.341
306.40 6.333
306.50 6.325
306.60 6.317
306.70 6.31
306.80 6.302
306.90 6.294
307.00 6.286
307.10 6.279
307.20 6.271
307.30 6.263
307.40 6.255
307.50 6.248
307.60 6.24
307.70 6.232
307.80 6.225
307.90 6.217
308.00 6.21
308.10 6.202
308.20 6.194
308.30 6.187
308.40 6.179
308.50 6.172
308.60 6.164
308.70 6.157
308.80 6.149
308.90 6.142
309.00 6.134
309.10 6.127
309.20 6.119
309.30 6.112
309.40 6.104
309.50 6.097
309.60 6.089
309.70 6.082
309.80 6.074
309.90 6.067
310.00 6.06
310.10 6.052
310.20 6.045
310.30 6.037
310.40 6.03
310.50 6.023
310.60 6.015
310.70 6.008
310.80 6.001
310.90 5.994
311.00 5.986
311.10 5.979
311.20 5.972
311.30 5.965
311.40 5.957
311.50 5.95
311.60 5.943
311.70 5.936
311.80 5.928
311.90 5.921
312.00 5.914
312.10 5.907
312.20 5.9
312.30 5.893
312.40 5.886
312.50 5.878
312.60 5.871
312.70 5.864
312.80 5.857
312.90 5.85
313.00 5.843
313.10 5.836
313.20 5.829
313.30 5.822
313.40 5.815
313.50 5.808
313.60 5.801
313.70 5.794
313.80 5.787
313.90 5.78
314.00 5.773
314.10 5.766
314.20 5.759
314.30 5.752
314.40 5.745
314.50 5.738
314.60 5.731
314.70 5.725
314.80 5.718
314.90 5.711
315.00 5.704
315.10 5.697
315.20 5.69
315.30 5.683
315.40 5.677
315.50 5.67
315.60 5.663
315.70 5.656
315.80 5.65
315.90 5.643
316.00 5.636
316.10 5.629
316.20 5.623
316.30 5.616
316.40 5.609
316.50 5.602
316.60 5.596
316.70 5.589
316.80 5.582
316.90 5.576
317.00 5.569
317.10 5.562
317.20 5.556
317.30 5.549
317.40 5.543
317.50 5.536
317.60 5.529
317.70 5.523
317.80 5.516
317.90 5.51
318.00 5.503
318.10 5.497
318.20 5.49
318.30 5.484
318.40 5.477
318.50 5.471
318.60 5.464
318.70 5.458
318.80 5.451
318.90 5.445
319.00 5.438
319.10 5.432
319.20 5.425
319.30 5.419
319.40 5.412
319.50 5.406
319.60 5.4
319.70 5.393
319.80 5.387
319.90 5.381
320.00 5.374
320.10 5.368
320.20 5.361
320.30 5.355
320.40 5.349
320.50 5.343
320.60 5.336
320.70 5.33
320.80 5.324
320.90 5.317
321.00 5.311
321.10 5.305
321.20 5.299
321.30 5.292
321.40 5.286
321.50 5.28
321.60 5.274
321.70 5.268
321.80 5.261
321.90 5.255
322.00 5.249
322.10 5.243
322.20 5.237
322.30 5.23
322.40 5.224
322.50 5.218
322.60 5.212
322.70 5.206
322.80 5.2
322.90 5.194
323.00 5.188
323.10 5.182
323.20 5.176
323.30 5.17
323.40 5.163
323.50 5.157
323.60 5.151
323.70 5.145
323.80 5.139
323.90 5.133
324.00 5.127
324.10 5.121
324.20 5.115
324.30 5.109
324.40 5.103
324.50 5.098
324.60 5.092
324.70 5.086
324.80 5.08
324.90 5.074
325.00 5.068
325.10 5.062
325.20 5.056
325.30 5.05
325.40 5.044
325.50 5.039
325.60 5.033
325.70 5.027
325.80 5.021
325.90 5.015
326.00 5.009
326.10 5.004
326.20 4.998
326.30 4.992
326.40 4.986
326.50 4.98
326.60 4.975
326.70 4.969
326.80 4.963
326.90 4.957
327.00 4.952
327.10 4.946
327.20 4.94
327.30 4.934
327.40 4.929
327.50 4.923
327.60 4.917
327.70 4.912
327.80 4.906
327.90 4.9
328.00 4.895
328.10 4.889
328.20 4.883
328.30 4.878
328.40 4.872
328.50 4.866
328.60 4.861
328.70 4.855
328.80 4.85
328.90 4.844
329.00 4.839
329.10 4.833
329.20 4.827
329.30 4.822
329.40 4.816
329.50 4.811
329.60 4.805
329.70 4.8
329.80 4.794
329.90 4.789
330.00 4.783
330.10 4.778
330.20 4.772
330.30 4.767
330.40 4.761
330.50 4.756
330.60 4.751
330.70 4.745
330.80 4.74
330.90 4.734
331.00 4.729
331.10 4.723
331.20 4.718
331.30 4.713
331.40 4.707
331.50 4.702
331.60 4.696
331.70 4.691
331.80 4.686
331.90 4.68
332.00 4.675
332.10 4.67
332.20 4.664
332.30 4.659
332.40 4.654
332.50 4.649
332.60 4.643
332.70 4.638
332.80 4.633
332.90 4.627
333.00 4.622
333.10 4.617
333.20 4.612
333.30 4.606
333.40 4.601
333.50 4.596
333.60 4.591
333.70 4.585
333.80 4.58
333.90 4.575
334.00 4.57
334.10 4.565
334.20 4.559
334.30 4.554
334.40 4.549
334.50 4.544
334.60 4.539
334.70 4.534
334.80 4.529
334.90 4.524
335.00 4.518
335.10 4.513
335.20 4.508
335.30 4.503
335.40 4.498
335.50 4.493
335.60 4.488
335.70 4.483
335.80 4.478
335.90 4.473
336.00 4.468
336.10 4.463
336.20 4.458
336.30 4.453
336.40 4.448
336.50 4.443
336.60 4.438
336.70 4.433
336.80 4.428
336.90 4.423
337.00 4.418
337.10 4.413
337.20 4.408
337.30 4.403
337.40 4.398
337.50 4.393
337.60 4.388
337.70 4.383
337.80 4.378
337.90 4.373
338.00 4.368
338.10 4.363
338.20 4.358
338.30 4.354
338.40 4.349
338.50 4.344
338.60 4.339
338.70 4.334
338.80 4.329
338.90 4.324
339.00 4.32
339.10 4.315
339.20 4.31
339.30 4.305
339.40 4.3
339.50 4.296
339.60 4.291
339.70 4.286
339.80 4.281
339.90 4.276
340.00 4.272
340.10 4.267
340.20 4.262
340.30 4.257
340.40 4.253
340.50 4.248
340.60 4.243
340.70 4.238
340.80 4.234
340.90 4.229
341.00 4.224
341.10 4.22
341.20 4.215
341.30 4.21
341.40 4.206
341.50 4.201
341.60 4.196
341.70 4.192
341.80 4.187
341.90 4.182
342.00 4.178
342.10 4.173
342.20 4.168
342.30 4.164
342.40 4.159
342.50 4.155
342.60 4.15
342.70 4.145
342.80 4.141
342.90 4.136
343.00 4.132
343.10 4.127
343.20 4.123
343.30 4.118
343.40 4.113
343.50 4.109
343.60 4.104
343.70 4.1
343.80 4.095
343.90 4.091
344.00 4.086
344.10 4.082
344.20 4.077
344.30 4.073
344.40 4.068
344.50 4.064
344.60 4.059
344.70 4.055
344.80 4.05
344.90 4.046
345.00 4.042
345.10 4.037
345.20 4.033
345.30 4.028
345.40 4.024
345.50 4.019
345.60 4.015
345.70 4.011
345.80 4.006
345.90 4.002
346.00 3.997
346.10 3.993
346.20 3.989
346.30 3.984
346.40 3.98
346.50 3.976
346.60 3.971
346.70 3.967
346.80 3.963
346.90 3.958
347.00 3.954
347.10 3.95
347.20 3.945
347.30 3.941
347.40 3.937
347.50 3.932
347.60 3.928
347.70 3.924
347.80 3.919
347.90 3.915
348.00 3.911
348.10 3.907
348.20 3.902
348.30 3.898
348.40 3.894
348.50 3.89
348.60 3.885
348.70 3.881
348.80 3.877
348.90 3.873
349.00 3.869
349.10 3.864
349.20 3.86
349.30 3.856
349.40 3.852
349.50 3.848
349.60 3.843
349.70 3.839
349.80 3.835
349.90 3.831
350.00 3.827
350.10 3.823
350.20 3.818
350.30 3.814
350.40 3.81
350.50 3.806
350.60 3.802
350.70 3.798
350.80 3.794
350.90 3.79
351.00 3.786
351.10 3.781
351.20 3.777
351.30 3.773
351.40 3.769
351.50 3.765
351.60 3.761
351.70 3.757
351.80 3.753
351.90 3.749
352.00 3.745
352.10 3.741
352.20 3.737
352.30 3.733
352.40 3.729
352.50 3.725
352.60 3.721
352.70 3.717
352.80 3.713
352.90 3.709
353.00 3.705
353.10 3.701
353.20 3.697
353.30 3.693
353.40 3.689
353.50 3.685
353.60 3.681
353.70 3.677
353.80 3.673
353.90 3.669
354.00 3.665
354.10 3.661
354.20 3.657
354.30 3.653
354.40 3.649
354.50 3.646
354.60 3.642
354.70 3.638
354.80 3.634
354.90 3.63
355.00 3.626
355.10 3.622
355.20 3.618
355.30 3.614
355.40 3.611
355.50 3.607
355.60 3.603
355.70 3.599
355.80 3.595
355.90 3.591
356.00 3.587
356.10 3.584
356.20 3.58
356.30 3.576
356.40 3.572
356.50 3.568
356.60 3.565
356.70 3.561
356.80 3.557
356.90 3.553
357.00 3.55
357.10 3.546
357.20 3.542
357.30 3.538
357.40 3.534
357.50 3.531
357.60 3.527
357.70 3.523
357.80 3.519
357.90 3.516
358.00 3.512
358.10 3.508
358.20 3.504
358.30 3.501
358.40 3.497
358.50 3.493
358.60 3.49
358.70 3.486
358.80 3.482
358.90 3.479
359.00 3.475
359.10 3.471
359.20 3.468
359.30 3.464
359.40 3.46
359.50 3.457
359.60 3.453
359.70 3.449
359.80 3.446
359.90 3.442
360.00 3.438
360.10 3.435
360.20 3.431
360.30 3.428
360.40 3.424
360.50 3.42
360.60 3.417
360.70 3.413
360.80 3.41
360.90 3.406
361.00 3.402
361.10 3.399
361.20 3.395
361.30 3.392
361.40 3.388
361.50 3.384
361.60 3.381
361.70 3.377
361.80 3.374
361.90 3.37
362.00 3.367
362.10 3.363
362.20 3.36
362.30 3.356
362.40 3.353
362.50 3.349
362.60 3.346
362.70 3.342
362.80 3.339
362.90 3.335
363.00 3.332
363.10 3.328
363.20 3.325
363.30 3.321
363.40 3.318
363.50 3.314
363.60 3.311
363.70 3.307
363.80 3.304
363.90 3.3
364.00 3.297
364.10 3.294
364.20 3.29
364.30 3.287
364.40 3.283
364.50 3.28
364.60 3.276
364.70 3.273
364.80 3.27
364.90 3.266
365.00 3.263
365.10 3.259
365.20 3.256
365.30 3.253
365.40 3.249
365.50 3.246
365.60 3.242
365.70 3.239
365.80 3.236
365.90 3.232
366.00 3.229
366.10 3.226
366.20 3.222
366.30 3.219
366.40 3.216
366.50 3.212
366.60 3.209
366.70 3.206
366.80 3.202
366.90 3.199
367.00 3.196
367.10 3.192
367.20 3.189
367.30 3.186
367.40 3.182
367.50 3.179
367.60 3.176
367.70 3.172
367.80 3.169
367.90 3.166
368.00 3.162
368.10 3.159
368.20 3.156
368.30 3.152
368.40 3.149
368.50 3.146
368.60 3.143
368.70 3.139
368.80 3.136
368.90 3.133
369.00 3.129
369.10 3.126
369.20 3.123
369.30 3.119
369.40 3.116
369.50 3.113
369.60 3.11
369.70 3.106
369.80 3.103
369.90 3.1
370.00 3.097
370.10 3.093
370.20 3.09
370.30 3.087
370.40 3.084
370.50 3.08
370.60 3.077
370.70 3.074
370.80 3.071
370.90 3.067
371.00 3.064
371.10 3.061
371.20 3.058
371.30 3.055
371.40 3.051
371.50 3.048
371.60 3.045
371.70 3.042
371.80 3.039
371.90 3.036
372.00 3.032
372.10 3.029
372.20 3.026
372.30 3.023
372.40 3.02
372.50 3.017
372.60 3.014
372.70 3.011
372.80 3.008
372.90 3.005
373.00 3.002
373.10 2.999
373.20 2.996
373.30 2.993
373.40 2.99
373.50 2.987
373.60 2.984
373.70 2.981
373.80 2.978
373.90 2.975
374.00 2.972
374.10 2.968
374.20 2.965
374.30 2.962
374.40 2.959
374.50 2.956
374.60 2.953
374.70 2.95
374.80 2.947
374.90 2.944
375.00 2.941
375.10 2.938
375.20 2.935
375.30 2.932
375.40 2.929
375.50 2.926
375.60 2.923
375.70 2.92
375.80 2.917
375.90 2.914
376.00 2.911
376.10 2.908
376.20 2.905
376.30 2.902
376.40 2.899
376.50 2.896
376.60 2.893
376.70 2.89
376.80 2.887
376.90 2.884
377.00 2.881
377.10 2.878
377.20 2.875
377.30 2.872
377.40 2.869
377.50 2.866
377.60 2.863
377.70 2.86
377.80 2.857
377.90 2.854
378.00 2.851
378.10 2.849
378.20 2.846
378.30 2.843
378.40 2.84
378.50 2.837
378.60 2.834
378.70 2.831
378.80 2.828
378.90 2.826
379.00 2.823
379.10 2.82
379.20 2.817
379.30 2.814
379.40 2.811
379.50 2.808
379.60 2.806
379.70 2.803
379.80 2.8
379.90 2.797
380.00 2.794
380.10 2.791
380.20 2.789
380.30 2.786
380.40 2.783
380.50 2.78
380.60 2.777
380.70 2.775
380.80 2.772
380.90 2.769
381.00 2.766
381.10 2.764
381.20 2.761
381.30 2.758
381.40 2.755
381.50 2.753
381.60 2.75
381.70 2.747
381.80 2.744
381.90 2.742
382.00 2.739
382.10 2.736
382.20 2.733
382.30 2.731
382.40 2.728
382.50 2.725
382.60 2.723
382.70 2.72
382.80 2.717
382.90 2.715
383.00 2.712
383.10 2.709
383.20 2.706
383.30 2.704
383.40 2.701
383.50 2.699
383.60 2.696
383.70 2.693
383.80 2.691
383.90 2.688
384.00 2.685
384.10 2.683
384.20 2.68
384.30 2.677
384.40 2.675
384.50 2.672
384.60 2.67
384.70 2.667
384.80 2.664
384.90 2.662
385.00 2.659
385.10 2.657
385.20 2.654
385.30 2.651
385.40 2.649
385.50 2.646
385.60 2.644
385.70 2.641
385.80 2.638
385.90 2.636
386.00 2.633
386.10 2.631
386.20 2.628
386.30 2.626
386.40 2.623
386.50 2.621
386.60 2.618
386.70 2.615
386.80 2.613
386.90 2.61
387.00 2.608
387.10 2.605
387.20 2.603
387.30 2.6
387.40 2.598
387.50 2.595
387.60 2.593
387.70 2.59
387.80 2.588
387.90 2.585
388.00 2.583
388.10 2.58
388.20 2.578
388.30 2.575
388.40 2.573
388.50 2.57
388.60 2.568
388.70 2.566
388.80 2.563
388.90 2.561
389.00 2.558
389.10 2.556
389.20 2.554
389.30 2.551
389.40 2.549
389.50 2.546
389.60 2.544
389.70 2.542
389.80 2.539
389.90 2.537
390.00 2.534
390.10 2.532
390.20 2.53
390.30 2.527
390.40 2.525
390.50 2.523
390.60 2.52
390.70 2.518
390.80 2.516
390.90 2.513
391.00 2.511
391.10 2.509
391.20 2.506
391.30 2.504
391.40 2.502
391.50 2.499
391.60 2.497
391.70 2.495
391.80 2.492
391.90 2.49
392.00 2.487
392.10 2.485
392.20 2.483
392.30 2.48
392.40 2.478
392.50 2.476
392.60 2.473
392.70 2.471
392.80 2.468
392.90 2.466
393.00 2.464
393.10 2.461
393.20 2.459
393.30 2.456
393.40 2.454
393.50 2.452
393.60 2.449
393.70 2.447
393.80 2.444
393.90 2.442
394.00 2.44
394.10 2.437
394.20 2.435
394.30 2.432
394.40 2.43
394.50 2.427
394.60 2.425
394.70 2.422
394.80 2.42
394.90 2.418
395.00 2.415
395.10 2.413
395.20 2.41
395.30 2.408
395.40 2.405
395.50 2.403
395.60 2.4
395.70 2.398
395.80 2.396
395.90 2.393
396.00 2.391
396.10 2.388
396.20 2.386
396.30 2.383
396.40 2.381
396.50 2.379
396.60 2.376
396.70 2.374
396.80 2.372
396.90 2.37
397.00 2.367
397.10 2.365
397.20 2.363
397.30 2.361
397.40 2.359
397.50 2.357
397.60 2.355
397.70 2.354
397.80 2.352
397.90 2.35
398.00 2.348
398.10 2.346
398.20 2.344
398.30 2.342
398.40 2.341
398.50 2.339
398.60 2.337
398.70 2.335
398.80 2.333
398.90 2.331
399.00 2.33
399.10 2.328
399.20 2.326
399.30 2.324
399.40 2.322
399.50 2.32
399.60 2.318
399.70 2.317
399.80 2.315
399.90 2.313
400.00 2.311
400.10 2.309
400.20 2.307
400.30 2.305
400.40 2.303
400.50 2.301
400.60 2.299
400.70 2.297
400.80 2.295
400.90 2.293
401.00 2.291
401.10 2.289
401.20 2.287
401.30 2.285
401.40 2.283
401.50 2.281
401.60 2.279
401.70 2.277
401.80 2.275
401.90 2.273
402.00 2.271
402.10 2.269
402.20 2.267
402.30 2.265
402.40 2.263
402.50 2.26
402.60 2.258
402.70 2.256
402.80 2.254
402.90 2.252
403.00 2.25
403.10 2.247
403.20 2.245
403.30 2.243
403.40 2.241
403.50 2.238
403.60 2.236
403.70 2.234
403.80 2.231
403.90 2.229
404.00 2.227
404.10 2.225
404.20 2.222
404.30 2.22
404.40 2.217
404.50 2.215
404.60 2.213
404.70 2.21
404.80 2.208
404.90 2.205
405.00 2.203
405.10 2.2
405.20 2.198
405.30 2.195
405.40 2.193
405.50 2.19
405.60 2.188
405.70 2.185
405.80 2.183
405.90 2.18
406.00 2.177
406.10 2.175
406.20 2.172
406.30 2.17
406.40 2.167
406.50 2.164
406.60 2.161
406.70 2.159
406.80 2.156
406.90 2.153
407.00 2.151
407.10 2.148
407.20 2.145
407.30 2.142
407.40 2.139
407.50 2.137
407.60 2.134
407.70 2.131
407.80 2.128
407.90 2.125
408.00 2.122
408.10 2.12
408.20 2.117
408.30 2.114
408.40 2.111
408.50 2.108
408.60 2.105
408.70 2.103
408.80 2.1
408.90 2.097
409.00 2.094
409.10 2.092
409.20 2.089
409.30 2.086
409.40 2.084
409.50 2.082
409.60 2.08
409.70 2.078
409.80 2.076
409.90 2.074
410.00 2.073
410.10 2.071
410.20 2.07
410.30 2.068
410.40 2.065
410.50 2.063
410.60 2.061
410.70 2.059
410.80 2.058
410.90 2.057
411.00 2.055
411.10 2.054
411.20 2.053
411.30 2.052
411.40 2.051
411.50 2.05
411.60 2.049
411.70 2.048
411.80 2.047
411.90 2.047
412.00 2.046
412.10 2.045
412.20 2.044
412.30 2.043
412.40 2.042
412.50 2.041
412.60 2.041
412.70 2.04
412.80 2.039
412.90 2.038
413.00 2.037
413.10 2.036
413.20 2.035
413.30 2.034
413.40 2.033
413.50 2.032
413.60 2.031
413.70 2.03
413.80 2.029
413.90 2.028
414.00 2.027
414.10 2.026
414.20 2.025
414.30 2.024
414.40 2.023
414.50 2.022
414.60 2.021
414.70 2.02
414.80 2.018
414.90 2.017
415.00 2.016
415.10 2.015
415.20 2.014
415.30 2.012
415.40 2.011
415.50 2.01
415.60 2.009
415.70 2.007
415.80 2.006
415.90 2.005
416.00 2.003
416.10 2.002
416.20 2.001
416.30 1.999
416.40 1.998
416.50 1.997
416.60 1.995
416.70 1.994
416.80 1.992
416.90 1.991
417.00 1.99
417.10 1.988
417.20 1.987
417.30 1.985
417.40 1.984
417.50 1.982
417.60 1.981
417.70 1.979
417.80 1.978
417.90 1.976
418.00 1.975
418.10 1.973
418.20 1.972
418.30 1.97
418.40 1.969
418.50 1.967
418.60 1.966
418.70 1.964
418.80 1.962
418.90 1.961
419.00 1.959
419.10 1.958
419.20 1.956
419.30 1.954
419.40 1.953
419.50 1.951
419.60 1.95
419.70 1.948
419.80 1.946
419.90 1.945
420.00 1.943
420.10 1.941
420.20 1.94
420.30 1.938
420.40 1.936
420.50 1.935
420.60 1.933
420.70 1.931
420.80 1.93
420.90 1.928
421.00 1.926
421.10 1.924
421.20 1.923
421.30 1.921
421.40 1.919
421.50 1.917
421.60 1.916
421.70 1.914
421.80 1.912
421.90 1.91
422.00 1.909
422.10 1.907
422.20 1.905
422.30 1.903
422.40 1.902
422.50 1.9
422.60 1.898
422.70 1.896
422.80 1.894
422.90 1.893
423.00 1.891
423.10 1.889
423.20 1.887
423.30 1.885
423.40 1.883
423.50 1.881
423.60 1.88
423.70 1.878
423.80 1.876
423.90 1.874
424.00 1.872
424.10 1.87
424.20 1.868
424.30 1.866
424.40 1.864
424.50 1.862
424.60 1.861
424.70 1.859
424.80 1.857
424.90 1.855
425.00 1.853
425.10 1.851
425.20 1.849
425.30 1.847
425.40 1.845
425.50 1.843
425.60 1.841
425.70 1.839
425.80 1.836
425.90 1.834
426.00 1.832
426.10 1.83
426.20 1.828
426.30 1.826
426.40 1.824
426.50 1.822
426.60 1.82
426.70 1.817
426.80 1.815
426.90 1.813
427.00 1.811
427.10 1.809
427.20 1.806
427.30 1.804
427.40 1.802
427.50 1.799
427.60 1.797
427.70 1.795
427.80 1.792
427.90 1.79
428.00 1.788
428.10 1.785
428.20 1.783
428.30 1.78
428.40 1.778
428.50 1.775
428.60 1.773
428.70 1.77
428.80 1.768
428.90 1.765
429.00 1.763
429.10 1.76
429.20 1.757
429.30 1.755
429.40 1.752
429.50 1.749
429.60 1.747
429.70 1.744
429.80 1.741
429.90 1.738
430.00 1.735
430.10 1.732
430.20 1.729
430.30 1.727
430.40 1.724
430.50 1.721
430.60 1.718
430.70 1.714
430.80 1.711
430.90 1.708
431.00 1.705
431.10 1.702
431.20 1.699
431.30 1.696
431.40 1.692
431.50 1.689
431.60 1.686
431.70 1.682
431.80 1.679
431.90 1.676
432.00 1.672
432.10 1.669
432.20 1.666
432.30 1.662
432.40 1.659
432.50 1.655
432.60 1.652
432.70 1.649
432.80 1.645
432.90 1.642
433.00 1.638
433.10 1.635
433.20 1.631
433.30 1.628
433.40 1.624
433.50 1.62
433.60 1.616
433.70 1.612
433.80 1.608
433.90 1.603
434.00 1.6
434.10 1.599
434.20 1.599
434.30 1.601
434.40 1.603
434.50 1.605
434.60 1.606
434.70 1.607
434.80 1.608
434.90 1.608
435.00 1.609
435.10 1.61
435.20 1.611
435.30 1.611
435.40 1.612
435.50 1.612
435.60 1.613
435.70 1.614
435.80 1.614
435.90 1.615
436.00 1.615
436.10 1.616
436.20 1.616
436.30 1.617
436.40 1.617
436.50 1.618
436.60 1.618
436.70 1.618
436.80 1.619
436.90 1.619
437.00 1.619
437.10 1.619
437.20 1.62
437.30 1.62
437.40 1.62
437.50 1.62
437.60 1.62
437.70 1.62
437.80 1.62
437.90 1.62
438.00 1.62
438.10 1.62
438.20 1.62
438.30 1.62
438.40 1.619
438.50 1.619
438.60 1.619
438.70 1.619
438.80 1.618
438.90 1.618
439.00 1.618
439.10 1.617
439.20 1.617
439.30 1.616
439.40 1.616
439.50 1.615
439.60 1.615
439.70 1.614
439.80 1.614
439.90 1.613
440.00 1.613
440.10 1.612
440.20 1.611
440.30 1.611
440.40 1.61
440.50 1.609
440.60 1.609
440.70 1.608
440.80 1.607
440.90 1.606
441.00 1.605
441.10 1.605
441.20 1.604
441.30 1.603
441.40 1.602
441.50 1.601
441.60 1.6
441.70 1.599
441.80 1.599
441.90 1.598
442.00 1.597
442.10 1.596
442.20 1.595
442.30 1.594
442.40 1.593
442.50 1.592
442.60 1.591
442.70 1.59
442.80 1.589
442.90 1.588
443.00 1.587
443.10 1.586
443.20 1.585
443.30 1.584
443.40 1.583
443.50 1.582
443.60 1.581
443.70 1.579
443.80 1.578
443.90 1.577
444.00 1.576
444.10 1.575
444.20 1.574
444.30 1.573
444.40 1.572
444.50 1.571
444.60 1.569
444.70 1.568
444.80 1.567
444.90 1.566
445.00 1.565
445.10 1.564
445.20 1.563
445.30 1.561
445.40 1.56
445.50 1.559
445.60 1.558
445.70 1.557
445.80 1.556
445.90 1.554
446.00 1.553
446.10 1.552
446.20 1.551
446.30 1.55
446.40 1.548
446.50 1.547
446.60 1.546
446.70 1.545
446.80 1.544
446.90 1.542
447.00 1.541
447.10 1.54
447.20 1.539
447.30 1.538
447.40 1.536
447.50 1.535
447.60 1.534
447.70 1.533
447.80 1.531
447.90 1.53
448.00 1.529
448.10 1.528
448.20 1.527
448.30 1.525
448.40 1.524
448.50 1.523
448.60 1.522
448.70 1.52
448.80 1.519
448.90 1.518
449.00 1.517
449.10 1.516
449.20 1.514
449.30 1.513
449.40 1.512
449.50 1.511
449.60 1.509
449.70 1.508
449.80 1.507
449.90 1.506
450.00 1.504
450.10 1.503
450.20 1.502
450.30 1.501
450.40 1.5
450.50 1.498
450.60 1.497
450.70 1.496
450.80 1.495
450.90 1.493
451.00 1.492
451.10 1.491
451.20 1.49
451.30 1.488
451.40 1.487
451.50 1.486
451.60 1.485
451.70 1.484
451.80 1.482
451.90 1.481
452.00 1.48
452.10 1.479
452.20 1.477
452.30 1.476
452.40 1.475
452.50 1.474
452.60 1.472
452.70 1.471
452.80 1.47
452.90 1.469
453.00 1.468
453.10 1.466
453.20 1.465
453.30 1.464
453.40 1.463
453.50 1.461
453.60 1.46
453.70 1.459
453.80 1.458
453.90 1.457
454.00 1.455
454.10 1.454
454.20 1.453
