# Version 2.1 - nm, norm@500 to 1, cut digits, bergeron_4500_65.dat_4500
# Wavelength(nm)  Flambda(ergs/cm^s/s/nm)
300.00 0.2329
300.10 0.2333
300.20 0.2337
300.30 0.2341
300.40 0.2344
300.50 0.2348
300.60 0.2352
300.70 0.2356
300.80 0.236
300.90 0.2364
301.00 0.2368
301.10 0.2371
301.20 0.2375
301.30 0.2379
301.40 0.2383
301.50 0.2387
301.60 0.239
301.70 0.2394
301.80 0.2398
301.90 0.2402
302.00 0.2406
302.10 0.241
302.20 0.2414
302.30 0.2417
302.40 0.2421
302.50 0.2425
302.60 0.2429
302.70 0.2433
302.80 0.2437
302.90 0.2441
303.00 0.2445
303.10 0.2449
303.20 0.2453
303.30 0.2456
303.40 0.246
303.50 0.2464
303.60 0.2468
303.70 0.2472
303.80 0.2476
303.90 0.248
304.00 0.2483
304.10 0.2487
304.20 0.2491
304.30 0.2495
304.40 0.2499
304.50 0.2503
304.60 0.2507
304.70 0.2511
304.80 0.2515
304.90 0.2519
305.00 0.2523
305.10 0.2527
305.20 0.2531
305.30 0.2535
305.40 0.2539
305.50 0.2543
305.60 0.2547
305.70 0.255
305.80 0.2554
305.90 0.2558
306.00 0.2562
306.10 0.2566
306.20 0.257
306.30 0.2574
306.40 0.2578
306.50 0.2582
306.60 0.2586
306.70 0.259
306.80 0.2594
306.90 0.2598
307.00 0.2602
307.10 0.2606
307.20 0.261
307.30 0.2614
307.40 0.2618
307.50 0.2622
307.60 0.2626
307.70 0.263
307.80 0.2634
307.90 0.2638
308.00 0.2642
308.10 0.2646
308.20 0.265
308.30 0.2654
308.40 0.2658
308.50 0.2662
308.60 0.2666
308.70 0.267
308.80 0.2674
308.90 0.2678
309.00 0.2682
309.10 0.2686
309.20 0.269
309.30 0.2694
309.40 0.2698
309.50 0.2702
309.60 0.2706
309.70 0.271
309.80 0.2714
309.90 0.2718
310.00 0.2722
310.10 0.2726
310.20 0.273
310.30 0.2734
310.40 0.2738
310.50 0.2742
310.60 0.2746
310.70 0.2751
310.80 0.2755
310.90 0.2759
311.00 0.2763
311.10 0.2767
311.20 0.2771
311.30 0.2775
311.40 0.2779
311.50 0.2783
311.60 0.2787
311.70 0.2791
311.80 0.2795
311.90 0.2799
312.00 0.2803
312.10 0.2807
312.20 0.2811
312.30 0.2815
312.40 0.282
312.50 0.2824
312.60 0.2828
312.70 0.2832
312.80 0.2836
312.90 0.284
313.00 0.2844
313.10 0.2848
313.20 0.2852
313.30 0.2857
313.40 0.2861
313.50 0.2865
313.60 0.2869
313.70 0.2873
313.80 0.2877
313.90 0.2881
314.00 0.2885
314.10 0.2889
314.20 0.2893
314.30 0.2898
314.40 0.2902
314.50 0.2906
314.60 0.291
314.70 0.2914
314.80 0.2918
314.90 0.2922
315.00 0.2927
315.10 0.2931
315.20 0.2935
315.30 0.2939
315.40 0.2943
315.50 0.2947
315.60 0.2951
315.70 0.2955
315.80 0.2959
315.90 0.2964
316.00 0.2968
316.10 0.2972
316.20 0.2976
316.30 0.298
316.40 0.2985
316.50 0.2989
316.60 0.2993
316.70 0.2997
316.80 0.3001
316.90 0.3006
317.00 0.301
317.10 0.3014
317.20 0.3018
317.30 0.3022
317.40 0.3026
317.50 0.303
317.60 0.3035
317.70 0.3039
317.80 0.3043
317.90 0.3047
318.00 0.3051
318.10 0.3055
318.20 0.306
318.30 0.3064
318.40 0.3068
318.50 0.3072
318.60 0.3077
318.70 0.3081
318.80 0.3085
318.90 0.3089
319.00 0.3093
319.10 0.3098
319.20 0.3102
319.30 0.3106
319.40 0.311
319.50 0.3114
319.60 0.3119
319.70 0.3123
319.80 0.3127
319.90 0.3131
320.00 0.3135
320.10 0.314
320.20 0.3144
320.30 0.3148
320.40 0.3152
320.50 0.3157
320.60 0.3161
320.70 0.3165
320.80 0.3169
320.90 0.3174
321.00 0.3178
321.10 0.3182
321.20 0.3186
321.30 0.3191
321.40 0.3195
321.50 0.3199
321.60 0.3203
321.70 0.3207
321.80 0.3212
321.90 0.3216
322.00 0.322
322.10 0.3224
322.20 0.3229
322.30 0.3233
322.40 0.3237
322.50 0.3242
322.60 0.3246
322.70 0.325
322.80 0.3254
322.90 0.3259
323.00 0.3263
323.10 0.3267
323.20 0.3271
323.30 0.3276
323.40 0.328
323.50 0.3284
323.60 0.3288
323.70 0.3293
323.80 0.3297
323.90 0.3301
324.00 0.3305
324.10 0.331
324.20 0.3314
324.30 0.3318
324.40 0.3323
324.50 0.3327
324.60 0.3331
324.70 0.3336
324.80 0.334
324.90 0.3344
325.00 0.3349
325.10 0.3353
325.20 0.3357
325.30 0.3361
325.40 0.3366
325.50 0.337
325.60 0.3374
325.70 0.3379
325.80 0.3383
325.90 0.3387
326.00 0.3391
326.10 0.3396
326.20 0.34
326.30 0.3404
326.40 0.3409
326.50 0.3413
326.60 0.3418
326.70 0.3422
326.80 0.3426
326.90 0.3431
327.00 0.3435
327.10 0.3439
327.20 0.3444
327.30 0.3448
327.40 0.3452
327.50 0.3456
327.60 0.3461
327.70 0.3465
327.80 0.3469
327.90 0.3474
328.00 0.3478
328.10 0.3482
328.20 0.3487
328.30 0.3491
328.40 0.3495
328.50 0.35
328.60 0.3504
328.70 0.3508
328.80 0.3513
328.90 0.3517
329.00 0.3522
329.10 0.3526
329.20 0.353
329.30 0.3535
329.40 0.3539
329.50 0.3543
329.60 0.3547
329.70 0.3552
329.80 0.3556
329.90 0.356
330.00 0.3565
330.10 0.3569
330.20 0.3574
330.30 0.3578
330.40 0.3582
330.50 0.3587
330.60 0.3591
330.70 0.3596
330.80 0.36
330.90 0.3604
331.00 0.3609
331.10 0.3613
331.20 0.3617
331.30 0.3622
331.40 0.3626
331.50 0.3631
331.60 0.3635
331.70 0.3639
331.80 0.3644
331.90 0.3648
332.00 0.3652
332.10 0.3657
332.20 0.3661
332.30 0.3666
332.40 0.367
332.50 0.3674
332.60 0.3679
332.70 0.3683
332.80 0.3688
332.90 0.3692
333.00 0.3696
333.10 0.3701
333.20 0.3705
333.30 0.371
333.40 0.3714
333.50 0.3718
333.60 0.3723
333.70 0.3727
333.80 0.3731
333.90 0.3736
334.00 0.374
334.10 0.3745
334.20 0.3749
334.30 0.3754
334.40 0.3758
334.50 0.3762
334.60 0.3767
334.70 0.3771
334.80 0.3776
334.90 0.378
335.00 0.3785
335.10 0.3789
335.20 0.3793
335.30 0.3798
335.40 0.3802
335.50 0.3807
335.60 0.3811
335.70 0.3815
335.80 0.382
335.90 0.3824
336.00 0.3828
336.10 0.3833
336.20 0.3837
336.30 0.3842
336.40 0.3846
336.50 0.3851
336.60 0.3855
336.70 0.386
336.80 0.3864
336.90 0.3869
337.00 0.3873
337.10 0.3878
337.20 0.3882
337.30 0.3886
337.40 0.3891
337.50 0.3895
337.60 0.39
337.70 0.3904
337.80 0.3908
337.90 0.3913
338.00 0.3917
338.10 0.3922
338.20 0.3926
338.30 0.3931
338.40 0.3935
338.50 0.394
338.60 0.3944
338.70 0.3949
338.80 0.3953
338.90 0.3957
339.00 0.3962
339.10 0.3966
339.20 0.3971
339.30 0.3975
339.40 0.398
339.50 0.3984
339.60 0.3989
339.70 0.3993
339.80 0.3997
339.90 0.4002
340.00 0.4006
340.10 0.4011
340.20 0.4015
340.30 0.402
340.40 0.4024
340.50 0.4029
340.60 0.4033
340.70 0.4038
340.80 0.4042
340.90 0.4047
341.00 0.4051
341.10 0.4056
341.20 0.406
341.30 0.4064
341.40 0.4069
341.50 0.4073
341.60 0.4078
341.70 0.4082
341.80 0.4087
341.90 0.4091
342.00 0.4095
342.10 0.41
342.20 0.4104
342.30 0.4109
342.40 0.4113
342.50 0.4118
342.60 0.4122
342.70 0.4127
342.80 0.4131
342.90 0.4136
343.00 0.414
343.10 0.4145
343.20 0.4149
343.30 0.4154
343.40 0.4158
343.50 0.4163
343.60 0.4167
343.70 0.4172
343.80 0.4176
343.90 0.4181
344.00 0.4185
344.10 0.4189
344.20 0.4194
344.30 0.4199
344.40 0.4203
344.50 0.4208
344.60 0.4212
344.70 0.4217
344.80 0.4221
344.90 0.4226
345.00 0.423
345.10 0.4235
345.20 0.4239
345.30 0.4244
345.40 0.4248
345.50 0.4253
345.60 0.4257
345.70 0.4261
345.80 0.4266
345.90 0.427
346.00 0.4275
346.10 0.4279
346.20 0.4284
346.30 0.4288
346.40 0.4293
346.50 0.4297
346.60 0.4302
346.70 0.4307
346.80 0.4311
346.90 0.4316
347.00 0.432
347.10 0.4325
347.20 0.4329
347.30 0.4334
347.40 0.4338
347.50 0.4343
347.60 0.4347
347.70 0.4351
347.80 0.4356
347.90 0.436
348.00 0.4365
348.10 0.4369
348.20 0.4374
348.30 0.4378
348.40 0.4383
348.50 0.4388
348.60 0.4392
348.70 0.4397
348.80 0.4401
348.90 0.4406
349.00 0.441
349.10 0.4415
349.20 0.4419
349.30 0.4424
349.40 0.4428
349.50 0.4433
349.60 0.4437
349.70 0.4442
349.80 0.4446
349.90 0.4451
350.00 0.4455
350.10 0.446
350.20 0.4464
350.30 0.4469
350.40 0.4473
350.50 0.4478
350.60 0.4482
350.70 0.4487
350.80 0.4491
350.90 0.4496
351.00 0.45
351.10 0.4505
351.20 0.4509
351.30 0.4514
351.40 0.4518
351.50 0.4523
351.60 0.4527
351.70 0.4532
351.80 0.4536
351.90 0.4541
352.00 0.4545
352.10 0.455
352.20 0.4554
352.30 0.4559
352.40 0.4564
352.50 0.4568
352.60 0.4573
352.70 0.4577
352.80 0.4582
352.90 0.4586
353.00 0.4591
353.10 0.4595
353.20 0.46
353.30 0.4604
353.40 0.4609
353.50 0.4613
353.60 0.4618
353.70 0.4622
353.80 0.4627
353.90 0.4631
354.00 0.4636
354.10 0.464
354.20 0.4645
354.30 0.4649
354.40 0.4654
354.50 0.4659
354.60 0.4663
354.70 0.4668
354.80 0.4672
354.90 0.4677
355.00 0.4681
355.10 0.4686
355.20 0.469
355.30 0.4695
355.40 0.4699
355.50 0.4704
355.60 0.4708
355.70 0.4713
355.80 0.4717
355.90 0.4722
356.00 0.4726
356.10 0.4731
356.20 0.4735
356.30 0.474
356.40 0.4744
356.50 0.4749
356.60 0.4754
356.70 0.4758
356.80 0.4763
356.90 0.4767
357.00 0.4772
357.10 0.4776
357.20 0.4781
357.30 0.4785
357.40 0.479
357.50 0.4794
357.60 0.4799
357.70 0.4803
357.80 0.4808
357.90 0.4812
358.00 0.4817
358.10 0.4821
358.20 0.4826
358.30 0.483
358.40 0.4835
358.50 0.484
358.60 0.4844
358.70 0.4849
358.80 0.4853
358.90 0.4858
359.00 0.4862
359.10 0.4867
359.20 0.4871
359.30 0.4876
359.40 0.488
359.50 0.4885
359.60 0.4889
359.70 0.4894
359.80 0.4898
359.90 0.4903
360.00 0.4907
360.10 0.4912
360.20 0.4916
360.30 0.4921
360.40 0.4925
360.50 0.493
360.60 0.4935
360.70 0.4939
360.80 0.4944
360.90 0.4948
361.00 0.4953
361.10 0.4957
361.20 0.4962
361.30 0.4966
361.40 0.4971
361.50 0.4975
361.60 0.498
361.70 0.4984
361.80 0.4989
361.90 0.4993
362.00 0.4998
362.10 0.5002
362.20 0.5007
362.30 0.5011
362.40 0.5016
362.50 0.502
362.60 0.5025
362.70 0.5029
362.80 0.5034
362.90 0.5038
363.00 0.5043
363.10 0.5047
363.20 0.5052
363.30 0.5057
363.40 0.5061
363.50 0.5066
363.60 0.507
363.70 0.5075
363.80 0.5079
363.90 0.5084
364.00 0.5088
364.10 0.5093
364.20 0.5097
364.30 0.5102
364.40 0.5106
364.50 0.5111
364.60 0.5115
364.70 0.512
364.80 0.5124
364.90 0.5129
365.00 0.5133
365.10 0.5138
365.20 0.5143
365.30 0.5147
365.40 0.5152
365.50 0.5156
365.60 0.5161
365.70 0.5165
365.80 0.517
365.90 0.5174
366.00 0.5178
366.10 0.5183
366.20 0.5188
366.30 0.5192
366.40 0.5197
366.50 0.5201
366.60 0.5206
366.70 0.521
366.80 0.5215
366.90 0.5219
367.00 0.5224
367.10 0.5228
367.20 0.5233
367.30 0.5237
367.40 0.5242
367.50 0.5246
367.60 0.5251
367.70 0.5255
367.80 0.526
367.90 0.5264
368.00 0.5269
368.10 0.5273
368.20 0.5278
368.30 0.5282
368.40 0.5287
368.50 0.5292
368.60 0.5296
368.70 0.5301
368.80 0.5305
368.90 0.531
369.00 0.5314
369.10 0.5319
369.20 0.5323
369.30 0.5328
369.40 0.5332
369.50 0.5337
369.60 0.5341
369.70 0.5346
369.80 0.535
369.90 0.5354
370.00 0.5359
370.10 0.5363
370.20 0.5368
370.30 0.5373
370.40 0.5377
370.50 0.5382
370.60 0.5386
370.70 0.5391
370.80 0.5395
370.90 0.54
371.00 0.5404
371.10 0.5409
371.20 0.5413
371.30 0.5418
371.40 0.5422
371.50 0.5427
371.60 0.5431
371.70 0.5436
371.80 0.544
371.90 0.5444
372.00 0.5449
372.10 0.5453
372.20 0.5458
372.30 0.5462
372.40 0.5467
372.50 0.5472
372.60 0.5476
372.70 0.5481
372.80 0.5485
372.90 0.549
373.00 0.5494
373.10 0.5499
373.20 0.5503
373.30 0.5507
373.40 0.5512
373.50 0.5516
373.60 0.5521
373.70 0.5525
373.80 0.553
373.90 0.5534
374.00 0.5539
374.10 0.5543
374.20 0.5548
374.30 0.5552
374.40 0.5557
374.50 0.5561
374.60 0.5566
374.70 0.557
374.80 0.5575
374.90 0.5579
375.00 0.5584
375.10 0.5588
375.20 0.5593
375.30 0.5597
375.40 0.5602
375.50 0.5606
375.60 0.5611
375.70 0.5615
375.80 0.5619
375.90 0.5624
376.00 0.5628
376.10 0.5633
376.20 0.5637
376.30 0.5642
376.40 0.5646
376.50 0.5651
376.60 0.5655
376.70 0.566
376.80 0.5664
376.90 0.5668
377.00 0.5673
377.10 0.5677
377.20 0.5682
377.30 0.5686
377.40 0.5691
377.50 0.5695
377.60 0.57
377.70 0.5704
377.80 0.5709
377.90 0.5713
378.00 0.5718
378.10 0.5722
378.20 0.5727
378.30 0.5731
378.40 0.5735
378.50 0.574
378.60 0.5744
378.70 0.5749
378.80 0.5753
378.90 0.5758
379.00 0.5762
379.10 0.5767
379.20 0.5771
379.30 0.5775
379.40 0.578
379.50 0.5784
379.60 0.5789
379.70 0.5793
379.80 0.5798
379.90 0.5802
380.00 0.5807
380.10 0.5811
380.20 0.5816
380.30 0.582
380.40 0.5824
380.50 0.5829
380.60 0.5833
380.70 0.5838
380.80 0.5842
380.90 0.5847
381.00 0.5851
381.10 0.5856
381.20 0.586
381.30 0.5864
381.40 0.5869
381.50 0.5873
381.60 0.5878
381.70 0.5882
381.80 0.5886
381.90 0.5891
382.00 0.5895
382.10 0.59
382.20 0.5904
382.30 0.5909
382.40 0.5913
382.50 0.5918
382.60 0.5922
382.70 0.5926
382.80 0.5931
382.90 0.5935
383.00 0.594
383.10 0.5944
383.20 0.5948
383.30 0.5953
383.40 0.5957
383.50 0.5962
383.60 0.5966
383.70 0.5971
383.80 0.5975
383.90 0.5979
384.00 0.5984
384.10 0.5988
384.20 0.5993
384.30 0.5997
384.40 0.6001
384.50 0.6006
384.60 0.601
384.70 0.6015
384.80 0.6019
384.90 0.6024
385.00 0.6028
385.10 0.6032
385.20 0.6037
385.30 0.6041
385.40 0.6046
385.50 0.605
385.60 0.6054
385.70 0.6059
385.80 0.6063
385.90 0.6068
386.00 0.6072
386.10 0.6076
386.20 0.6081
386.30 0.6085
386.40 0.6089
386.50 0.6094
386.60 0.6098
386.70 0.6103
386.80 0.6107
386.90 0.6111
387.00 0.6116
387.10 0.612
387.20 0.6125
387.30 0.6129
387.40 0.6133
387.50 0.6138
387.60 0.6142
387.70 0.6147
387.80 0.6151
387.90 0.6155
388.00 0.616
388.10 0.6164
388.20 0.6168
388.30 0.6173
388.40 0.6177
388.50 0.6182
388.60 0.6186
388.70 0.619
388.80 0.6195
388.90 0.6199
389.00 0.6203
389.10 0.6208
389.20 0.6212
389.30 0.6217
389.40 0.6221
389.50 0.6225
389.60 0.623
389.70 0.6234
389.80 0.6238
389.90 0.6243
390.00 0.6247
390.10 0.6251
390.20 0.6256
390.30 0.626
390.40 0.6264
390.50 0.6269
390.60 0.6273
390.70 0.6277
390.80 0.6282
390.90 0.6286
391.00 0.6291
391.10 0.6295
391.20 0.6299
391.30 0.6304
391.40 0.6308
391.50 0.6312
391.60 0.6317
391.70 0.6321
391.80 0.6325
391.90 0.633
392.00 0.6334
392.10 0.6338
392.20 0.6343
392.30 0.6347
392.40 0.6351
392.50 0.6356
392.60 0.636
392.70 0.6364
392.80 0.6369
392.90 0.6373
393.00 0.6377
393.10 0.6381
393.20 0.6386
393.30 0.639
393.40 0.6395
393.50 0.6399
393.60 0.6403
393.70 0.6407
393.80 0.6412
393.90 0.6416
394.00 0.642
394.10 0.6425
394.20 0.6429
394.30 0.6433
394.40 0.6438
394.50 0.6442
394.60 0.6446
394.70 0.6451
394.80 0.6455
394.90 0.6459
395.00 0.6463
395.10 0.6468
395.20 0.6472
395.30 0.6476
395.40 0.6481
395.50 0.6485
395.60 0.6489
395.70 0.6493
395.80 0.6498
395.90 0.6502
396.00 0.6506
396.10 0.6511
396.20 0.6515
396.30 0.6519
396.40 0.6524
396.50 0.6528
396.60 0.6532
396.70 0.6536
396.80 0.6541
396.90 0.6545
397.00 0.6549
397.10 0.6553
397.20 0.6558
397.30 0.6562
397.40 0.6566
397.50 0.6571
397.60 0.6575
397.70 0.6579
397.80 0.6583
397.90 0.6588
398.00 0.6592
398.10 0.6596
398.20 0.66
398.30 0.6605
398.40 0.6609
398.50 0.6613
398.60 0.6617
398.70 0.6622
398.80 0.6626
398.90 0.663
399.00 0.6634
399.10 0.6639
399.20 0.6643
399.30 0.6647
399.40 0.6651
399.50 0.6656
399.60 0.666
399.70 0.6664
399.80 0.6668
399.90 0.6673
400.00 0.6677
400.10 0.6681
400.20 0.6685
400.30 0.669
400.40 0.6694
400.50 0.6698
400.60 0.6702
400.70 0.6707
400.80 0.6711
400.90 0.6715
401.00 0.6719
401.10 0.6723
401.20 0.6728
401.30 0.6732
401.40 0.6736
401.50 0.674
401.60 0.6745
401.70 0.6749
401.80 0.6753
401.90 0.6757
402.00 0.6761
402.10 0.6766
402.20 0.677
402.30 0.6774
402.40 0.6778
402.50 0.6782
402.60 0.6787
402.70 0.6791
402.80 0.6795
402.90 0.6799
403.00 0.6803
403.10 0.6808
403.20 0.6812
403.30 0.6816
403.40 0.682
403.50 0.6824
403.60 0.6829
403.70 0.6833
403.80 0.6837
403.90 0.6841
404.00 0.6845
404.10 0.6849
404.20 0.6854
404.30 0.6858
404.40 0.6862
404.50 0.6866
404.60 0.687
404.70 0.6874
404.80 0.6879
404.90 0.6883
405.00 0.6887
405.10 0.6891
405.20 0.6895
405.30 0.6899
405.40 0.6904
405.50 0.6908
405.60 0.6912
405.70 0.6916
405.80 0.692
405.90 0.6924
406.00 0.6929
406.10 0.6933
406.20 0.6937
406.30 0.6941
406.40 0.6945
406.50 0.6949
406.60 0.6954
406.70 0.6958
406.80 0.6962
406.90 0.6966
407.00 0.697
407.10 0.6974
407.20 0.6978
407.30 0.6982
407.40 0.6987
407.50 0.6991
407.60 0.6995
407.70 0.6999
407.80 0.7003
407.90 0.7007
408.00 0.7011
408.10 0.7015
408.20 0.702
408.30 0.7024
408.40 0.7028
408.50 0.7032
408.60 0.7036
408.70 0.704
408.80 0.7044
408.90 0.7048
409.00 0.7052
409.10 0.7056
409.20 0.706
409.30 0.7064
409.40 0.7068
409.50 0.7072
409.60 0.7076
409.70 0.7079
409.80 0.7082
409.90 0.7085
410.00 0.7083
410.10 0.7077
410.20 0.7067
410.30 0.7088
410.40 0.7103
410.50 0.7111
410.60 0.7116
410.70 0.7121
410.80 0.7125
410.90 0.713
411.00 0.7134
411.10 0.7138
411.20 0.7142
411.30 0.7146
411.40 0.7151
411.50 0.7155
411.60 0.7159
411.70 0.7163
411.80 0.7167
411.90 0.7171
412.00 0.7175
412.10 0.7179
412.20 0.7183
412.30 0.7187
412.40 0.7191
412.50 0.7195
412.60 0.7199
412.70 0.7203
412.80 0.7208
412.90 0.7212
413.00 0.7216
413.10 0.722
413.20 0.7224
413.30 0.7228
413.40 0.7232
413.50 0.7236
413.60 0.724
413.70 0.7244
413.80 0.7248
413.90 0.7252
414.00 0.7256
414.10 0.726
414.20 0.7264
414.30 0.7268
414.40 0.7272
414.50 0.7276
414.60 0.728
414.70 0.7284
414.80 0.7288
414.90 0.7292
415.00 0.7296
415.10 0.73
415.20 0.7304
415.30 0.7308
415.40 0.7312
415.50 0.7316
415.60 0.732
415.70 0.7324
415.80 0.7328
415.90 0.7332
416.00 0.7336
416.10 0.734
416.20 0.7344
416.30 0.7348
416.40 0.7352
416.50 0.7356
416.60 0.736
416.70 0.7364
416.80 0.7368
416.90 0.7372
417.00 0.7376
417.10 0.738
417.20 0.7384
417.30 0.7388
417.40 0.7392
417.50 0.7396
417.60 0.74
417.70 0.7404
417.80 0.7408
417.90 0.7412
418.00 0.7416
418.10 0.742
418.20 0.7424
418.30 0.7428
418.40 0.7432
418.50 0.7436
418.60 0.744
418.70 0.7444
418.80 0.7448
418.90 0.7452
419.00 0.7456
419.10 0.746
419.20 0.7464
419.30 0.7467
419.40 0.7471
419.50 0.7475
419.60 0.7479
419.70 0.7483
419.80 0.7487
419.90 0.7491
420.00 0.7495
420.10 0.7499
420.20 0.7503
420.30 0.7507
420.40 0.7511
420.50 0.7515
420.60 0.7519
420.70 0.7523
420.80 0.7526
420.90 0.753
421.00 0.7534
421.10 0.7538
421.20 0.7542
421.30 0.7546
421.40 0.755
421.50 0.7554
421.60 0.7558
421.70 0.7562
421.80 0.7566
421.90 0.7569
422.00 0.7573
422.10 0.7577
422.20 0.7581
422.30 0.7585
422.40 0.7589
422.50 0.7593
422.60 0.7597
422.70 0.7601
422.80 0.7604
422.90 0.7608
423.00 0.7612
423.10 0.7616
423.20 0.762
423.30 0.7624
423.40 0.7628
423.50 0.7632
423.60 0.7635
423.70 0.7639
423.80 0.7643
423.90 0.7647
424.00 0.7651
424.10 0.7655
424.20 0.7659
424.30 0.7663
424.40 0.7666
424.50 0.767
424.60 0.7674
424.70 0.7678
424.80 0.7682
424.90 0.7686
425.00 0.7689
425.10 0.7693
425.20 0.7697
425.30 0.7701
425.40 0.7705
425.50 0.7709
425.60 0.7712
425.70 0.7716
425.80 0.772
425.90 0.7724
426.00 0.7728
426.10 0.7732
426.20 0.7735
426.30 0.7739
426.40 0.7743
426.50 0.7747
426.60 0.7751
426.70 0.7754
426.80 0.7758
426.90 0.7762
427.00 0.7766
427.10 0.777
427.20 0.7774
427.30 0.7777
427.40 0.7781
427.50 0.7785
427.60 0.7789
427.70 0.7793
427.80 0.7796
427.90 0.78
428.00 0.7804
428.10 0.7808
428.20 0.7812
428.30 0.7815
428.40 0.7819
428.50 0.7823
428.60 0.7827
428.70 0.783
428.80 0.7834
428.90 0.7838
429.00 0.7842
429.10 0.7846
429.20 0.7849
429.30 0.7853
429.40 0.7857
429.50 0.7861
429.60 0.7864
429.70 0.7868
429.80 0.7872
429.90 0.7876
430.00 0.7879
430.10 0.7883
430.20 0.7887
430.30 0.7891
430.40 0.7894
430.50 0.7898
430.60 0.7902
430.70 0.7906
430.80 0.7909
430.90 0.7913
431.00 0.7917
431.10 0.792
431.20 0.7924
431.30 0.7928
431.40 0.7932
431.50 0.7935
431.60 0.7939
431.70 0.7943
431.80 0.7946
431.90 0.795
432.00 0.7954
432.10 0.7958
432.20 0.7961
432.30 0.7965
432.40 0.7969
432.50 0.7972
432.60 0.7976
432.70 0.798
432.80 0.7983
432.90 0.7987
433.00 0.799
433.10 0.7994
433.20 0.7997
433.30 0.8001
433.40 0.8004
433.50 0.8007
433.60 0.8009
433.70 0.801
433.80 0.8006
433.90 0.7997
434.00 0.7947
434.10 0.7951
434.20 0.801
434.30 0.8025
434.40 0.8036
434.50 0.8042
434.60 0.8047
434.70 0.8052
434.80 0.8056
434.90 0.806
435.00 0.8064
435.10 0.8068
435.20 0.8071
435.30 0.8075
435.40 0.8079
435.50 0.8083
435.60 0.8086
435.70 0.809
435.80 0.8094
435.90 0.8097
436.00 0.8101
436.10 0.8105
436.20 0.8108
436.30 0.8112
436.40 0.8116
436.50 0.8119
436.60 0.8123
436.70 0.8126
436.80 0.813
436.90 0.8134
437.00 0.8137
437.10 0.8141
437.20 0.8145
437.30 0.8148
437.40 0.8152
437.50 0.8155
437.60 0.8159
437.70 0.8163
437.80 0.8166
437.90 0.817
438.00 0.8173
438.10 0.8177
438.20 0.8181
438.30 0.8184
438.40 0.8188
438.50 0.8191
438.60 0.8195
438.70 0.8199
438.80 0.8202
438.90 0.8206
439.00 0.8209
439.10 0.8213
439.20 0.8217
439.30 0.822
439.40 0.8224
439.50 0.8227
439.60 0.8231
439.70 0.8234
439.80 0.8238
439.90 0.8242
440.00 0.8245
440.10 0.8249
440.20 0.8252
440.30 0.8256
440.40 0.8259
440.50 0.8263
440.60 0.8266
440.70 0.827
440.80 0.8273
440.90 0.8277
441.00 0.8281
441.10 0.8284
441.20 0.8288
441.30 0.8291
441.40 0.8295
441.50 0.8298
441.60 0.8302
441.70 0.8305
441.80 0.8309
441.90 0.8312
442.00 0.8316
442.10 0.8319
442.20 0.8323
442.30 0.8326
442.40 0.833
442.50 0.8333
442.60 0.8337
442.70 0.8341
442.80 0.8344
442.90 0.8348
443.00 0.8351
