# Version 2.1 - nm, norm@500 to 1, cut digits, bergeron_11500_70.dat_11500
# Wavelength(nm)  Flambda(ergs/cm^s/s/nm)
300.00 1.474
300.10 1.473
300.20 1.472
300.30 1.471
300.40 1.47
300.50 1.47
300.60 1.469
300.70 1.468
300.80 1.467
300.90 1.466
301.00 1.465
301.10 1.464
301.20 1.464
301.30 1.463
301.40 1.462
301.50 1.461
301.60 1.46
301.70 1.459
301.80 1.459
301.90 1.458
302.00 1.457
302.10 1.456
302.20 1.455
302.30 1.454
302.40 1.454
302.50 1.453
302.60 1.452
302.70 1.451
302.80 1.45
302.90 1.449
303.00 1.449
303.10 1.448
303.20 1.447
303.30 1.446
303.40 1.445
303.50 1.444
303.60 1.444
303.70 1.443
303.80 1.442
303.90 1.441
304.00 1.44
304.10 1.44
304.20 1.439
304.30 1.438
304.40 1.437
304.50 1.436
304.60 1.435
304.70 1.435
304.80 1.434
304.90 1.433
305.00 1.432
305.10 1.431
305.20 1.431
305.30 1.43
305.40 1.429
305.50 1.428
305.60 1.427
305.70 1.426
305.80 1.426
305.90 1.425
306.00 1.424
306.10 1.423
306.20 1.422
306.30 1.422
306.40 1.421
306.50 1.42
306.60 1.419
306.70 1.418
306.80 1.418
306.90 1.417
307.00 1.416
307.10 1.415
307.20 1.414
307.30 1.414
307.40 1.413
307.50 1.412
307.60 1.411
307.70 1.41
307.80 1.41
307.90 1.409
308.00 1.408
308.10 1.407
308.20 1.406
308.30 1.406
308.40 1.405
308.50 1.404
308.60 1.403
308.70 1.402
308.80 1.402
308.90 1.401
309.00 1.4
309.10 1.399
309.20 1.398
309.30 1.398
309.40 1.397
309.50 1.396
309.60 1.395
309.70 1.395
309.80 1.394
309.90 1.393
310.00 1.392
310.10 1.391
310.20 1.391
310.30 1.39
310.40 1.389
310.50 1.388
310.60 1.387
310.70 1.387
310.80 1.386
310.90 1.385
311.00 1.384
311.10 1.384
311.20 1.383
311.30 1.382
311.40 1.381
311.50 1.38
311.60 1.38
311.70 1.379
311.80 1.378
311.90 1.377
312.00 1.377
312.10 1.376
312.20 1.375
312.30 1.374
312.40 1.374
312.50 1.373
312.60 1.372
312.70 1.371
312.80 1.37
312.90 1.37
313.00 1.369
313.10 1.368
313.20 1.367
313.30 1.367
313.40 1.366
313.50 1.365
313.60 1.364
313.70 1.364
313.80 1.363
313.90 1.362
314.00 1.361
314.10 1.361
314.20 1.36
314.30 1.359
314.40 1.358
314.50 1.357
314.60 1.357
314.70 1.356
314.80 1.355
314.90 1.354
315.00 1.354
315.10 1.353
315.20 1.352
315.30 1.351
315.40 1.351
315.50 1.35
315.60 1.349
315.70 1.348
315.80 1.348
315.90 1.347
316.00 1.346
316.10 1.345
316.20 1.345
316.30 1.344
316.40 1.343
316.50 1.342
316.60 1.342
316.70 1.341
316.80 1.34
316.90 1.339
317.00 1.339
317.10 1.338
317.20 1.337
317.30 1.336
317.40 1.336
317.50 1.335
317.60 1.334
317.70 1.334
317.80 1.333
317.90 1.332
318.00 1.331
318.10 1.331
318.20 1.33
318.30 1.329
318.40 1.328
318.50 1.328
318.60 1.327
318.70 1.326
318.80 1.325
318.90 1.325
319.00 1.324
319.10 1.323
319.20 1.322
319.30 1.322
319.40 1.321
319.50 1.32
319.60 1.32
319.70 1.319
319.80 1.318
319.90 1.317
320.00 1.317
320.10 1.316
320.20 1.315
320.30 1.314
320.40 1.314
320.50 1.313
320.60 1.312
320.70 1.312
320.80 1.311
320.90 1.31
321.00 1.309
321.10 1.309
321.20 1.308
321.30 1.307
321.40 1.307
321.50 1.306
321.60 1.305
321.70 1.304
321.80 1.304
321.90 1.303
322.00 1.302
322.10 1.301
322.20 1.301
322.30 1.3
322.40 1.299
322.50 1.299
322.60 1.298
322.70 1.297
322.80 1.296
322.90 1.296
323.00 1.295
323.10 1.294
323.20 1.294
323.30 1.293
323.40 1.292
323.50 1.292
323.60 1.291
323.70 1.29
323.80 1.289
323.90 1.289
324.00 1.288
324.10 1.287
324.20 1.287
324.30 1.286
324.40 1.285
324.50 1.284
324.60 1.284
324.70 1.283
324.80 1.282
324.90 1.282
325.00 1.281
325.10 1.28
325.20 1.28
325.30 1.279
325.40 1.278
325.50 1.277
325.60 1.277
325.70 1.276
325.80 1.275
325.90 1.275
326.00 1.274
326.10 1.273
326.20 1.273
326.30 1.272
326.40 1.271
326.50 1.27
326.60 1.27
326.70 1.269
326.80 1.268
326.90 1.268
327.00 1.267
327.10 1.266
327.20 1.266
327.30 1.265
327.40 1.264
327.50 1.264
327.60 1.263
327.70 1.262
327.80 1.262
327.90 1.261
328.00 1.26
328.10 1.259
328.20 1.259
328.30 1.258
328.40 1.257
328.50 1.257
328.60 1.256
328.70 1.255
328.80 1.255
328.90 1.254
329.00 1.253
329.10 1.253
329.20 1.252
329.30 1.251
329.40 1.251
329.50 1.25
329.60 1.249
329.70 1.249
329.80 1.248
329.90 1.247
330.00 1.247
330.10 1.246
330.20 1.245
330.30 1.245
330.40 1.244
330.50 1.243
330.60 1.242
330.70 1.242
330.80 1.241
330.90 1.24
331.00 1.24
331.10 1.239
331.20 1.238
331.30 1.238
331.40 1.237
331.50 1.236
331.60 1.236
331.70 1.235
331.80 1.234
331.90 1.234
332.00 1.233
332.10 1.232
332.20 1.232
332.30 1.231
332.40 1.23
332.50 1.23
332.60 1.229
332.70 1.228
332.80 1.228
332.90 1.227
333.00 1.226
333.10 1.226
333.20 1.225
333.30 1.224
333.40 1.224
333.50 1.223
333.60 1.223
333.70 1.222
333.80 1.221
333.90 1.221
334.00 1.22
334.10 1.219
334.20 1.219
334.30 1.218
334.40 1.217
334.50 1.217
334.60 1.216
334.70 1.215
334.80 1.215
334.90 1.214
335.00 1.213
335.10 1.213
335.20 1.212
335.30 1.211
335.40 1.211
335.50 1.21
335.60 1.209
335.70 1.209
335.80 1.208
335.90 1.208
336.00 1.207
336.10 1.206
336.20 1.206
336.30 1.205
336.40 1.204
336.50 1.204
336.60 1.203
336.70 1.202
336.80 1.202
336.90 1.201
337.00 1.2
337.10 1.2
337.20 1.199
337.30 1.198
337.40 1.198
337.50 1.197
337.60 1.197
337.70 1.196
337.80 1.195
337.90 1.195
338.00 1.194
338.10 1.193
338.20 1.193
338.30 1.192
338.40 1.191
338.50 1.191
338.60 1.19
338.70 1.19
338.80 1.189
338.90 1.188
339.00 1.188
339.10 1.187
339.20 1.186
339.30 1.186
339.40 1.185
339.50 1.184
339.60 1.184
339.70 1.183
339.80 1.183
339.90 1.182
340.00 1.181
340.10 1.181
340.20 1.18
340.30 1.179
340.40 1.179
340.50 1.178
340.60 1.178
340.70 1.177
340.80 1.176
340.90 1.176
341.00 1.175
341.10 1.174
341.20 1.174
341.30 1.173
341.40 1.173
341.50 1.172
341.60 1.171
341.70 1.171
341.80 1.17
341.90 1.169
342.00 1.169
342.10 1.168
342.20 1.168
342.30 1.167
342.40 1.166
342.50 1.166
342.60 1.165
342.70 1.164
342.80 1.164
342.90 1.163
343.00 1.163
343.10 1.162
343.20 1.161
343.30 1.161
343.40 1.16
343.50 1.16
343.60 1.159
343.70 1.158
343.80 1.158
343.90 1.157
344.00 1.156
344.10 1.156
344.20 1.155
344.30 1.155
344.40 1.154
344.50 1.153
344.60 1.153
344.70 1.152
344.80 1.152
344.90 1.151
345.00 1.15
345.10 1.15
345.20 1.149
345.30 1.149
345.40 1.148
345.50 1.147
345.60 1.147
345.70 1.146
345.80 1.146
345.90 1.145
346.00 1.144
346.10 1.144
346.20 1.143
346.30 1.143
346.40 1.142
346.50 1.141
346.60 1.141
346.70 1.14
346.80 1.14
346.90 1.139
347.00 1.138
347.10 1.138
347.20 1.137
347.30 1.137
347.40 1.136
347.50 1.135
347.60 1.135
347.70 1.134
347.80 1.134
347.90 1.133
348.00 1.132
348.10 1.132
348.20 1.131
348.30 1.131
348.40 1.13
348.50 1.129
348.60 1.129
348.70 1.128
348.80 1.128
348.90 1.127
349.00 1.126
349.10 1.126
349.20 1.125
349.30 1.125
349.40 1.124
349.50 1.123
349.60 1.123
349.70 1.122
349.80 1.122
349.90 1.121
350.00 1.121
350.10 1.12
350.20 1.119
350.30 1.119
350.40 1.118
350.50 1.118
350.60 1.117
350.70 1.116
350.80 1.116
350.90 1.115
351.00 1.115
351.10 1.114
351.20 1.114
351.30 1.113
351.40 1.112
351.50 1.112
351.60 1.111
351.70 1.111
351.80 1.11
351.90 1.109
352.00 1.109
352.10 1.108
352.20 1.108
352.30 1.107
352.40 1.107
352.50 1.106
352.60 1.105
352.70 1.105
352.80 1.104
352.90 1.104
353.00 1.103
353.10 1.103
353.20 1.102
353.30 1.101
353.40 1.101
353.50 1.1
353.60 1.1
353.70 1.099
353.80 1.098
353.90 1.098
354.00 1.097
354.10 1.097
354.20 1.096
354.30 1.096
354.40 1.095
354.50 1.095
354.60 1.094
354.70 1.093
354.80 1.093
354.90 1.092
355.00 1.092
355.10 1.091
355.20 1.091
355.30 1.09
355.40 1.089
355.50 1.089
355.60 1.088
355.70 1.088
355.80 1.087
355.90 1.087
356.00 1.086
356.10 1.085
356.20 1.085
356.30 1.084
356.40 1.084
356.50 1.083
356.60 1.083
356.70 1.082
356.80 1.082
356.90 1.081
357.00 1.08
357.10 1.08
357.20 1.079
357.30 1.079
357.40 1.078
357.50 1.078
357.60 1.077
357.70 1.077
357.80 1.076
357.90 1.075
358.00 1.075
358.10 1.074
358.20 1.074
358.30 1.073
358.40 1.073
358.50 1.072
358.60 1.071
358.70 1.071
358.80 1.07
358.90 1.07
359.00 1.069
359.10 1.069
359.20 1.068
359.30 1.068
359.40 1.067
359.50 1.067
359.60 1.066
359.70 1.065
359.80 1.065
359.90 1.064
360.00 1.064
360.10 1.063
360.20 1.063
360.30 1.062
360.40 1.062
360.50 1.061
360.60 1.06
360.70 1.06
360.80 1.059
360.90 1.059
361.00 1.058
361.10 1.058
361.20 1.057
361.30 1.057
361.40 1.056
361.50 1.056
361.60 1.055
361.70 1.054
361.80 1.054
361.90 1.053
362.00 1.053
362.10 1.052
362.20 1.052
362.30 1.051
362.40 1.051
362.50 1.05
362.60 1.05
362.70 1.049
362.80 1.049
362.90 1.048
363.00 1.047
363.10 1.047
363.20 1.046
363.30 1.046
363.40 1.045
363.50 1.045
363.60 1.044
363.70 1.043
363.80 1.043
363.90 1.042
364.00 1.042
364.10 1.041
364.20 1.041
364.30 1.04
364.40 1.04
364.50 1.039
364.60 1.038
364.70 1.038
364.80 1.037
364.90 1.037
365.00 1.036
365.10 1.036
365.20 1.035
365.30 1.035
365.40 1.034
365.50 1.034
365.60 1.033
365.70 1.033
365.80 1.032
365.90 1.032
366.00 1.031
366.10 1.031
366.20 1.03
366.30 1.03
366.40 1.029
366.50 1.029
366.60 1.028
366.70 1.028
366.80 1.027
366.90 1.027
367.00 1.026
367.10 1.026
367.20 1.026
367.30 1.025
367.40 1.025
367.50 1.024
367.60 1.024
367.70 1.023
367.80 1.023
367.90 1.022
368.00 1.022
368.10 1.022
368.20 1.023
368.30 1.023
368.40 1.024
368.50 1.024
368.60 1.024
368.70 1.025
368.80 1.025
368.90 1.026
369.00 1.026
369.10 1.026
369.20 1.027
369.30 1.027
369.40 1.028
369.50 1.028
369.60 1.028
369.70 1.029
369.80 1.029
369.90 1.03
370.00 1.03
370.10 1.032
370.20 1.034
370.30 1.037
370.40 1.039
370.50 1.041
370.60 1.043
370.70 1.045
370.80 1.047
370.90 1.049
371.00 1.051
371.10 1.053
371.20 1.056
371.30 1.058
371.40 1.06
371.50 1.062
371.60 1.064
371.70 1.066
371.80 1.068
371.90 1.07
372.00 1.072
372.10 1.076
372.20 1.079
372.30 1.083
372.40 1.087
372.50 1.09
372.60 1.094
372.70 1.097
372.80 1.101
372.90 1.104
373.00 1.108
373.10 1.111
373.20 1.115
373.30 1.118
373.40 1.122
373.50 1.125
373.60 1.129
373.70 1.132
373.80 1.136
373.90 1.139
374.00 1.143
374.10 1.146
374.20 1.15
374.30 1.154
374.40 1.157
374.50 1.161
374.60 1.165
374.70 1.168
374.80 1.172
374.90 1.175
375.00 1.179
375.10 1.183
375.20 1.186
375.30 1.19
375.40 1.193
375.50 1.197
375.60 1.201
375.70 1.204
375.80 1.208
375.90 1.211
376.00 1.215
376.10 1.217
376.20 1.219
376.30 1.22
376.40 1.222
376.50 1.224
376.60 1.226
376.70 1.227
376.80 1.229
376.90 1.231
377.00 1.233
377.10 1.23
377.20 1.227
377.30 1.224
377.40 1.221
377.50 1.218
377.60 1.216
377.70 1.213
377.80 1.21
377.90 1.207
378.00 1.204
378.10 1.187
378.20 1.169
378.30 1.152
378.40 1.134
378.50 1.117
378.60 1.1
378.70 1.082
378.80 1.065
378.90 1.048
379.00 1.03
379.10 1.015
379.20 0.9986
379.30 0.9827
379.40 0.9668
379.50 0.951
379.60 0.9351
379.70 0.9193
379.80 0.9035
379.90 0.8876
380.00 0.8719
380.10 0.8965
380.20 0.9212
380.30 0.9458
380.40 0.9704
380.50 0.995
380.60 1.02
380.70 1.044
380.80 1.069
380.90 1.093
381.00 1.117
381.10 1.127
381.20 1.136
381.30 1.145
381.40 1.154
381.50 1.163
381.60 1.164
381.70 1.162
381.80 1.157
381.90 1.15
382.00 1.14
382.10 1.127
382.20 1.11
382.30 1.079
382.40 1.048
382.50 1.017
382.60 0.9861
382.70 0.9552
382.80 0.9243
382.90 0.8935
383.00 0.8627
383.10 0.8319
383.20 0.8012
383.30 0.7665
383.40 0.7287
383.50 0.6879
383.60 0.6971
383.70 0.7367
383.80 0.7743
383.90 0.8086
384.00 0.8433
384.10 0.88
384.20 0.9171
384.30 0.9538
384.40 0.9902
384.50 1.026
384.60 1.059
384.70 1.089
384.80 1.116
384.90 1.14
385.00 1.161
385.10 1.179
385.20 1.195
385.30 1.21
385.40 1.221
385.50 1.231
385.60 1.24
385.70 1.246
385.80 1.251
385.90 1.255
386.00 1.257
386.10 1.257
386.20 1.256
386.30 1.253
386.40 1.249
386.50 1.244
386.60 1.237
386.70 1.228
386.80 1.219
386.90 1.207
387.00 1.193
387.10 1.179
387.20 1.162
387.30 1.143
387.40 1.123
387.50 1.099
387.60 1.074
387.70 1.046
387.80 1.015
387.90 0.981
388.00 0.9449
388.10 0.9059
388.20 0.8662
388.30 0.826
388.40 0.7858
388.50 0.7466
388.60 0.7084
388.70 0.668
388.80 0.6244
388.90 0.5776
389.00 0.6213
389.10 0.6633
389.20 0.7037
389.30 0.7415
389.40 0.7803
389.50 0.8201
389.60 0.8603
389.70 0.9002
389.80 0.9395
389.90 0.9765
390.00 1.012
390.10 1.045
390.20 1.074
390.30 1.102
390.40 1.128
390.50 1.151
390.60 1.173
390.70 1.194
390.80 1.213
390.90 1.231
391.00 1.248
391.10 1.264
391.20 1.278
391.30 1.293
391.40 1.305
391.50 1.317
391.60 1.329
391.70 1.339
391.80 1.348
391.90 1.357
392.00 1.365
392.10 1.372
392.20 1.378
392.30 1.383
392.40 1.387
392.50 1.39
392.60 1.392
392.70 1.394
392.80 1.395
392.90 1.394
393.00 1.393
393.10 1.391
393.20 1.388
393.30 1.384
393.40 1.379
393.50 1.373
393.60 1.367
393.70 1.359
393.80 1.351
393.90 1.341
394.00 1.331
394.10 1.319
394.20 1.307
394.30 1.294
394.40 1.28
394.50 1.265
394.60 1.249
394.70 1.232
394.80 1.215
394.90 1.197
395.00 1.177
395.10 1.157
395.20 1.136
395.30 1.113
395.40 1.09
395.50 1.065
395.60 1.039
395.70 1.012
395.80 0.983
395.90 0.9518
396.00 0.9194
396.10 0.8857
396.20 0.8495
396.30 0.8124
396.40 0.7742
396.50 0.7355
396.60 0.6974
396.70 0.6599
396.80 0.6189
396.90 0.5661
397.00 0.5016
397.10 0.5615
397.20 0.6122
397.30 0.6537
397.40 0.6908
397.50 0.7283
397.60 0.7664
397.70 0.8041
397.80 0.8408
397.90 0.8765
398.00 0.9098
398.10 0.9418
398.20 0.9725
398.30 1.001
398.40 1.028
398.50 1.054
398.60 1.078
398.70 1.102
398.80 1.124
398.90 1.145
399.00 1.166
399.10 1.186
399.20 1.205
399.30 1.223
399.40 1.241
399.50 1.259
399.60 1.275
399.70 1.291
399.80 1.306
399.90 1.321
400.00 1.336
400.10 1.349
400.20 1.362
400.30 1.375
400.40 1.387
400.50 1.398
400.60 1.409
400.70 1.42
400.80 1.429
400.90 1.439
401.00 1.448
401.10 1.456
401.20 1.464
401.30 1.472
401.40 1.479
401.50 1.486
401.60 1.492
401.70 1.498
401.80 1.503
401.90 1.508
402.00 1.513
402.10 1.518
402.20 1.521
402.30 1.525
402.40 1.528
402.50 1.531
402.60 1.533
402.70 1.536
402.80 1.537
402.90 1.539
403.00 1.54
403.10 1.541
403.20 1.541
403.30 1.541
403.40 1.541
403.50 1.541
403.60 1.54
403.70 1.539
403.80 1.537
403.90 1.535
404.00 1.533
404.10 1.531
404.20 1.528
404.30 1.524
404.40 1.521
404.50 1.517
404.60 1.513
404.70 1.508
404.80 1.504
404.90 1.498
405.00 1.493
405.10 1.487
405.20 1.48
405.30 1.473
405.40 1.466
405.50 1.459
405.60 1.451
405.70 1.442
405.80 1.434
405.90 1.424
406.00 1.415
406.10 1.405
406.20 1.394
406.30 1.384
406.40 1.372
406.50 1.361
406.60 1.348
406.70 1.336
406.80 1.322
406.90 1.309
407.00 1.294
407.10 1.28
407.20 1.264
407.30 1.248
407.40 1.231
407.50 1.214
407.60 1.197
407.70 1.178
407.80 1.16
407.90 1.14
408.00 1.12
408.10 1.1
408.20 1.079
408.30 1.057
408.40 1.035
408.50 1.013
408.60 0.9896
408.70 0.9661
408.80 0.9417
408.90 0.9166
409.00 0.8909
409.10 0.8637
409.20 0.8357
409.30 0.8069
409.40 0.7759
409.50 0.744
409.60 0.711
409.70 0.6771
409.80 0.643
409.90 0.6087
410.00 0.5661
410.10 0.5164
410.20 0.4598
410.30 0.5335
410.40 0.5891
410.50 0.6265
410.60 0.66
410.70 0.6933
410.80 0.7265
410.90 0.7582
411.00 0.7887
411.10 0.8181
411.20 0.8454
411.30 0.872
411.40 0.8976
411.50 0.9219
411.60 0.9456
411.70 0.9687
411.80 0.9908
411.90 1.012
412.00 1.034
412.10 1.054
412.20 1.074
412.30 1.094
412.40 1.113
412.50 1.131
412.60 1.149
412.70 1.166
412.80 1.183
412.90 1.2
413.00 1.215
413.10 1.23
413.20 1.245
413.30 1.259
413.40 1.273
413.50 1.286
413.60 1.298
413.70 1.31
413.80 1.322
413.90 1.333
414.00 1.344
414.10 1.354
414.20 1.364
414.30 1.374
414.40 1.383
414.50 1.392
414.60 1.401
414.70 1.409
414.80 1.417
414.90 1.425
415.00 1.433
415.10 1.44
415.20 1.447
415.30 1.453
415.40 1.46
415.50 1.466
415.60 1.472
415.70 1.477
415.80 1.483
415.90 1.488
416.00 1.493
416.10 1.498
416.20 1.502
416.30 1.507
416.40 1.511
416.50 1.515
416.60 1.519
416.70 1.522
416.80 1.526
416.90 1.529
417.00 1.532
417.10 1.536
417.20 1.538
417.30 1.541
417.40 1.544
417.50 1.546
417.60 1.549
417.70 1.551
417.80 1.553
417.90 1.555
418.00 1.557
418.10 1.559
418.20 1.561
418.30 1.562
418.40 1.564
418.50 1.565
418.60 1.566
418.70 1.567
418.80 1.569
418.90 1.57
419.00 1.57
419.10 1.571
419.20 1.572
419.30 1.573
419.40 1.573
419.50 1.574
419.60 1.574
419.70 1.575
419.80 1.575
419.90 1.575
420.00 1.576
420.10 1.576
420.20 1.576
420.30 1.576
420.40 1.576
420.50 1.575
420.60 1.575
420.70 1.575
420.80 1.575
420.90 1.574
421.00 1.574
421.10 1.574
421.20 1.573
421.30 1.572
421.40 1.572
421.50 1.571
421.60 1.57
421.70 1.57
421.80 1.569
421.90 1.568
422.00 1.567
422.10 1.566
422.20 1.565
422.30 1.564
422.40 1.563
422.50 1.561
422.60 1.56
422.70 1.559
422.80 1.557
422.90 1.556
423.00 1.554
423.10 1.553
423.20 1.551
423.30 1.55
423.40 1.548
423.50 1.546
423.60 1.544
423.70 1.543
423.80 1.541
423.90 1.539
424.00 1.537
424.10 1.535
424.20 1.532
424.30 1.53
424.40 1.528
424.50 1.526
424.60 1.523
424.70 1.521
424.80 1.518
424.90 1.516
425.00 1.513
425.10 1.51
425.20 1.507
425.30 1.504
425.40 1.501
425.50 1.498
425.60 1.495
425.70 1.492
425.80 1.489
425.90 1.485
426.00 1.482
426.10 1.478
426.20 1.474
426.30 1.47
426.40 1.466
426.50 1.462
426.60 1.458
426.70 1.454
426.80 1.449
426.90 1.445
427.00 1.44
427.10 1.436
427.20 1.431
427.30 1.426
427.40 1.421
427.50 1.416
427.60 1.411
427.70 1.405
427.80 1.4
427.90 1.394
428.00 1.388
428.10 1.382
428.20 1.376
428.30 1.369
428.40 1.363
428.50 1.356
428.60 1.349
428.70 1.342
428.80 1.335
428.90 1.328
429.00 1.32
429.10 1.312
429.20 1.304
429.30 1.296
429.40 1.287
429.50 1.279
429.60 1.27
429.70 1.26
429.80 1.251
429.90 1.241
430.00 1.231
430.10 1.221
430.20 1.21
430.30 1.2
430.40 1.188
430.50 1.177
430.60 1.166
430.70 1.154
430.80 1.141
430.90 1.129
431.00 1.116
431.10 1.103
431.20 1.09
431.30 1.077
431.40 1.063
431.50 1.049
431.60 1.035
431.70 1.019
431.80 1.004
431.90 0.9876
432.00 0.9707
432.10 0.9532
432.20 0.9345
432.30 0.9151
432.40 0.8949
432.50 0.8731
432.60 0.8506
432.70 0.8273
432.80 0.8037
432.90 0.7803
433.00 0.7573
433.10 0.7353
433.20 0.713
433.30 0.6903
433.40 0.6652
433.50 0.639
433.60 0.6116
433.70 0.5828
433.80 0.5507
433.90 0.5152
434.00 0.4238
434.10 0.4249
434.20 0.5184
434.30 0.5527
434.40 0.584
434.50 0.6122
434.60 0.639
434.70 0.6645
434.80 0.6889
434.90 0.7108
435.00 0.7324
435.10 0.7537
435.20 0.7759
435.30 0.7984
435.40 0.8212
435.50 0.8433
435.60 0.8647
435.70 0.8854
435.80 0.9043
435.90 0.9225
436.00 0.9399
436.10 0.9561
436.20 0.9717
436.30 0.9867
436.40 1.001
436.50 1.015
436.60 1.028
436.70 1.04
436.80 1.053
436.90 1.065
437.00 1.076
437.10 1.087
437.20 1.099
437.30 1.109
437.40 1.12
437.50 1.13
437.60 1.14
437.70 1.15
437.80 1.159
437.90 1.168
438.00 1.177
438.10 1.186
438.20 1.194
438.30 1.202
438.40 1.209
438.50 1.217
438.60 1.224
438.70 1.231
438.80 1.238
438.90 1.244
439.00 1.25
439.10 1.256
439.20 1.262
439.30 1.268
439.40 1.273
439.50 1.278
439.60 1.283
439.70 1.288
439.80 1.293
439.90 1.297
440.00 1.301
440.10 1.305
440.20 1.309
440.30 1.313
440.40 1.317
440.50 1.321
440.60 1.324
440.70 1.327
440.80 1.33
440.90 1.333
441.00 1.336
441.10 1.339
441.20 1.342
441.30 1.344
441.40 1.347
441.50 1.349
441.60 1.352
441.70 1.354
441.80 1.356
441.90 1.358
442.00 1.36
442.10 1.362
442.20 1.363
442.30 1.365
442.40 1.366
442.50 1.368
442.60 1.369
442.70 1.371
442.80 1.372
442.90 1.373
443.00 1.374
443.10 1.375
443.20 1.377
443.30 1.377
443.40 1.378
443.50 1.379
443.60 1.38
443.70 1.381
443.80 1.382
443.90 1.382
444.00 1.383
444.10 1.384
444.20 1.384
444.30 1.385
444.40 1.385
444.50 1.386
444.60 1.386
444.70 1.386
444.80 1.387
444.90 1.387
445.00 1.387
445.10 1.387
445.20 1.388
445.30 1.388
445.40 1.388
445.50 1.388
445.60 1.388
445.70 1.388
445.80 1.388
445.90 1.388
446.00 1.388
446.10 1.388
446.20 1.388
446.30 1.388
446.40 1.388
446.50 1.388
446.60 1.388
446.70 1.387
446.80 1.387
446.90 1.387
447.00 1.387
447.10 1.386
447.20 1.386
447.30 1.386
447.40 1.386
447.50 1.385
447.60 1.385
447.70 1.385
447.80 1.384
447.90 1.384
448.00 1.384
448.10 1.383
448.20 1.383
448.30 1.382
448.40 1.382
448.50 1.381
448.60 1.381
448.70 1.381
448.80 1.38
448.90 1.38
449.00 1.379
449.10 1.379
449.20 1.378
449.30 1.378
449.40 1.377
449.50 1.377
449.60 1.376
449.70 1.376
449.80 1.375
449.90 1.375
450.00 1.374
450.10 1.373
450.20 1.373
450.30 1.372
450.40 1.372
450.50 1.371
450.60 1.37
450.70 1.37
450.80 1.369
450.90 1.368
451.00 1.368
451.10 1.367
451.20 1.366
451.30 1.366
451.40 1.365
451.50 1.364
451.60 1.364
451.70 1.363
451.80 1.362
451.90 1.362
452.00 1.361
452.10 1.36
452.20 1.36
452.30 1.359
452.40 1.358
452.50 1.358
452.60 1.357
452.70 1.356
452.80 1.355
452.90 1.355
