# Version 2.1 - nm, norm@500 to 1, cut digits, bergeron_55000_80.dat_55000
# Wavelength(nm)  Flambda(ergs/cm^s/s/nm)
300.00 6.308
300.10 6.3
300.20 6.292
300.30 6.285
300.40 6.277
300.50 6.269
300.60 6.262
300.70 6.254
300.80 6.247
300.90 6.239
301.00 6.232
301.10 6.224
301.20 6.216
301.30 6.209
301.40 6.201
301.50 6.194
301.60 6.186
301.70 6.179
301.80 6.171
301.90 6.164
302.00 6.157
302.10 6.149
302.20 6.142
302.30 6.134
302.40 6.127
302.50 6.12
302.60 6.112
302.70 6.105
302.80 6.097
302.90 6.09
303.00 6.083
303.10 6.075
303.20 6.068
303.30 6.061
303.40 6.054
303.50 6.046
303.60 6.039
303.70 6.032
303.80 6.025
303.90 6.017
304.00 6.01
304.10 6.003
304.20 5.996
304.30 5.988
304.40 5.981
304.50 5.974
304.60 5.967
304.70 5.96
304.80 5.953
304.90 5.946
305.00 5.938
305.10 5.931
305.20 5.924
305.30 5.917
305.40 5.91
305.50 5.903
305.60 5.896
305.70 5.889
305.80 5.882
305.90 5.875
306.00 5.868
306.10 5.861
306.20 5.854
306.30 5.847
306.40 5.84
306.50 5.833
306.60 5.826
306.70 5.819
306.80 5.812
306.90 5.805
307.00 5.798
307.10 5.792
307.20 5.785
307.30 5.778
307.40 5.771
307.50 5.764
307.60 5.757
307.70 5.75
307.80 5.744
307.90 5.737
308.00 5.73
308.10 5.723
308.20 5.716
308.30 5.71
308.40 5.703
308.50 5.696
308.60 5.689
308.70 5.683
308.80 5.676
308.90 5.669
309.00 5.662
309.10 5.656
309.20 5.649
309.30 5.642
309.40 5.636
309.50 5.629
309.60 5.622
309.70 5.616
309.80 5.609
309.90 5.603
310.00 5.596
310.10 5.589
310.20 5.583
310.30 5.576
310.40 5.57
310.50 5.563
310.60 5.557
310.70 5.55
310.80 5.544
310.90 5.537
311.00 5.53
311.10 5.524
311.20 5.518
311.30 5.511
311.40 5.505
311.50 5.498
311.60 5.492
311.70 5.485
311.80 5.479
311.90 5.472
312.00 5.466
312.10 5.46
312.20 5.453
312.30 5.447
312.40 5.44
312.50 5.434
312.60 5.428
312.70 5.421
312.80 5.415
312.90 5.409
313.00 5.402
313.10 5.396
313.20 5.39
313.30 5.383
313.40 5.377
313.50 5.371
313.60 5.365
313.70 5.358
313.80 5.352
313.90 5.346
314.00 5.34
314.10 5.333
314.20 5.327
314.30 5.321
314.40 5.315
314.50 5.309
314.60 5.302
314.70 5.296
314.80 5.29
314.90 5.284
315.00 5.278
315.10 5.272
315.20 5.266
315.30 5.26
315.40 5.253
315.50 5.247
315.60 5.241
315.70 5.235
315.80 5.229
315.90 5.223
316.00 5.217
316.10 5.211
316.20 5.205
316.30 5.199
316.40 5.193
316.50 5.187
316.60 5.181
316.70 5.175
316.80 5.169
316.90 5.163
317.00 5.157
317.10 5.151
317.20 5.145
317.30 5.139
317.40 5.133
317.50 5.127
317.60 5.121
317.70 5.116
317.80 5.11
317.90 5.104
318.00 5.098
318.10 5.092
318.20 5.086
318.30 5.08
318.40 5.075
318.50 5.069
318.60 5.063
318.70 5.057
318.80 5.051
318.90 5.045
319.00 5.04
319.10 5.034
319.20 5.028
319.30 5.022
319.40 5.017
319.50 5.011
319.60 5.005
319.70 4.999
319.80 4.994
319.90 4.988
320.00 4.982
320.10 4.977
320.20 4.971
320.30 4.965
320.40 4.959
320.50 4.954
320.60 4.948
320.70 4.942
320.80 4.937
320.90 4.931
321.00 4.926
321.10 4.92
321.20 4.914
321.30 4.909
321.40 4.903
321.50 4.898
321.60 4.892
321.70 4.886
321.80 4.881
321.90 4.875
322.00 4.87
322.10 4.864
322.20 4.859
322.30 4.853
322.40 4.848
322.50 4.842
322.60 4.837
322.70 4.831
322.80 4.826
322.90 4.82
323.00 4.815
323.10 4.809
323.20 4.804
323.30 4.798
323.40 4.793
323.50 4.788
323.60 4.782
323.70 4.777
323.80 4.771
323.90 4.766
324.00 4.76
324.10 4.755
324.20 4.75
324.30 4.744
324.40 4.739
324.50 4.734
324.60 4.728
324.70 4.723
324.80 4.718
324.90 4.712
325.00 4.707
325.10 4.702
325.20 4.696
325.30 4.691
325.40 4.686
325.50 4.681
325.60 4.675
325.70 4.67
325.80 4.665
325.90 4.66
326.00 4.654
326.10 4.649
326.20 4.644
326.30 4.639
326.40 4.633
326.50 4.628
326.60 4.623
326.70 4.618
326.80 4.613
326.90 4.607
327.00 4.602
327.10 4.597
327.20 4.592
327.30 4.587
327.40 4.582
327.50 4.577
327.60 4.571
327.70 4.566
327.80 4.561
327.90 4.556
328.00 4.551
328.10 4.546
328.20 4.541
328.30 4.536
328.40 4.531
328.50 4.526
328.60 4.521
328.70 4.516
328.80 4.511
328.90 4.505
329.00 4.5
329.10 4.495
329.20 4.49
329.30 4.485
329.40 4.48
329.50 4.475
329.60 4.47
329.70 4.465
329.80 4.46
329.90 4.456
330.00 4.451
330.10 4.446
330.20 4.441
330.30 4.436
330.40 4.431
330.50 4.426
330.60 4.421
330.70 4.416
330.80 4.411
330.90 4.406
331.00 4.401
331.10 4.397
331.20 4.392
331.30 4.387
331.40 4.382
331.50 4.377
331.60 4.372
331.70 4.367
331.80 4.363
331.90 4.358
332.00 4.353
332.10 4.348
332.20 4.343
332.30 4.339
332.40 4.334
332.50 4.329
332.60 4.324
332.70 4.319
332.80 4.315
332.90 4.31
333.00 4.305
333.10 4.3
333.20 4.296
333.30 4.291
333.40 4.286
333.50 4.282
333.60 4.277
333.70 4.272
333.80 4.267
333.90 4.263
334.00 4.258
334.10 4.253
334.20 4.249
334.30 4.244
334.40 4.239
334.50 4.235
334.60 4.23
334.70 4.225
334.80 4.221
334.90 4.216
335.00 4.212
335.10 4.207
335.20 4.202
335.30 4.198
335.40 4.193
335.50 4.188
335.60 4.184
335.70 4.179
335.80 4.175
335.90 4.17
336.00 4.166
336.10 4.161
336.20 4.157
336.30 4.152
336.40 4.147
336.50 4.143
336.60 4.138
336.70 4.134
336.80 4.129
336.90 4.125
337.00 4.12
337.10 4.116
337.20 4.111
337.30 4.107
337.40 4.102
337.50 4.098
337.60 4.094
337.70 4.089
337.80 4.085
337.90 4.08
338.00 4.076
338.10 4.071
338.20 4.067
338.30 4.062
338.40 4.058
338.50 4.054
338.60 4.049
338.70 4.045
338.80 4.04
338.90 4.036
339.00 4.032
339.10 4.027
339.20 4.023
339.30 4.019
339.40 4.014
339.50 4.01
339.60 4.006
339.70 4.001
339.80 3.997
339.90 3.993
340.00 3.988
340.10 3.984
340.20 3.98
340.30 3.975
340.40 3.971
340.50 3.967
340.60 3.963
340.70 3.958
340.80 3.954
340.90 3.95
341.00 3.945
341.10 3.941
341.20 3.937
341.30 3.933
341.40 3.928
341.50 3.924
341.60 3.92
341.70 3.916
341.80 3.912
341.90 3.907
342.00 3.903
342.10 3.899
342.20 3.895
342.30 3.891
342.40 3.886
342.50 3.882
342.60 3.878
342.70 3.874
342.80 3.87
342.90 3.866
343.00 3.861
343.10 3.857
343.20 3.853
343.30 3.849
343.40 3.845
343.50 3.841
343.60 3.837
343.70 3.833
343.80 3.828
343.90 3.824
344.00 3.82
344.10 3.816
344.20 3.812
344.30 3.808
344.40 3.804
344.50 3.8
344.60 3.796
344.70 3.792
344.80 3.788
344.90 3.784
345.00 3.78
345.10 3.776
345.20 3.772
345.30 3.768
345.40 3.764
345.50 3.76
345.60 3.756
345.70 3.752
345.80 3.748
345.90 3.744
346.00 3.74
346.10 3.736
346.20 3.732
346.30 3.728
346.40 3.724
346.50 3.72
346.60 3.716
346.70 3.712
346.80 3.708
346.90 3.704
347.00 3.7
347.10 3.696
347.20 3.692
347.30 3.688
347.40 3.684
347.50 3.681
347.60 3.677
347.70 3.673
347.80 3.669
347.90 3.665
348.00 3.661
348.10 3.657
348.20 3.653
348.30 3.649
348.40 3.646
348.50 3.642
348.60 3.638
348.70 3.634
348.80 3.63
348.90 3.626
349.00 3.623
349.10 3.619
349.20 3.615
349.30 3.611
349.40 3.607
349.50 3.604
349.60 3.6
349.70 3.596
349.80 3.592
349.90 3.588
350.00 3.585
350.10 3.581
350.20 3.577
350.30 3.573
350.40 3.57
350.50 3.566
350.60 3.562
350.70 3.558
350.80 3.555
350.90 3.551
351.00 3.547
351.10 3.543
351.20 3.54
351.30 3.536
351.40 3.532
351.50 3.529
351.60 3.525
351.70 3.521
351.80 3.517
351.90 3.514
352.00 3.51
352.10 3.506
352.20 3.503
352.30 3.499
352.40 3.495
352.50 3.492
352.60 3.488
352.70 3.485
352.80 3.481
352.90 3.477
353.00 3.474
353.10 3.47
353.20 3.466
353.30 3.463
353.40 3.459
353.50 3.456
353.60 3.452
353.70 3.448
353.80 3.445
353.90 3.441
354.00 3.437
354.10 3.434
354.20 3.43
354.30 3.427
354.40 3.423
354.50 3.42
354.60 3.416
354.70 3.413
354.80 3.409
354.90 3.406
355.00 3.402
355.10 3.398
355.20 3.395
355.30 3.391
355.40 3.388
355.50 3.384
355.60 3.381
355.70 3.377
355.80 3.374
355.90 3.37
356.00 3.367
356.10 3.363
356.20 3.36
356.30 3.356
356.40 3.353
356.50 3.349
356.60 3.346
356.70 3.343
356.80 3.339
356.90 3.336
357.00 3.332
357.10 3.329
357.20 3.325
357.30 3.322
357.40 3.318
357.50 3.315
357.60 3.312
357.70 3.308
357.80 3.305
357.90 3.301
358.00 3.298
358.10 3.295
358.20 3.291
358.30 3.288
358.40 3.284
358.50 3.281
358.60 3.278
358.70 3.274
358.80 3.271
358.90 3.268
359.00 3.264
359.10 3.261
359.20 3.258
359.30 3.254
359.40 3.251
359.50 3.247
359.60 3.244
359.70 3.241
359.80 3.237
359.90 3.234
360.00 3.231
360.10 3.228
360.20 3.224
360.30 3.221
360.40 3.218
360.50 3.214
360.60 3.211
360.70 3.208
360.80 3.205
360.90 3.201
361.00 3.198
361.10 3.195
361.20 3.191
361.30 3.188
361.40 3.185
361.50 3.182
361.60 3.178
361.70 3.175
361.80 3.172
361.90 3.169
362.00 3.165
362.10 3.162
362.20 3.159
362.30 3.156
362.40 3.153
362.50 3.149
362.60 3.146
362.70 3.143
362.80 3.14
362.90 3.137
363.00 3.133
363.10 3.13
363.20 3.127
363.30 3.124
363.40 3.121
363.50 3.117
363.60 3.114
363.70 3.111
363.80 3.108
363.90 3.105
364.00 3.102
364.10 3.099
364.20 3.095
364.30 3.092
364.40 3.089
364.50 3.086
364.60 3.083
364.70 3.08
364.80 3.077
364.90 3.074
365.00 3.07
365.10 3.067
365.20 3.064
365.30 3.061
365.40 3.058
365.50 3.055
365.60 3.052
365.70 3.049
365.80 3.046
365.90 3.043
366.00 3.04
366.10 3.036
366.20 3.033
366.30 3.03
366.40 3.027
366.50 3.024
366.60 3.021
366.70 3.018
366.80 3.014
366.90 3.011
367.00 3.008
367.10 3.005
367.20 3.002
367.30 2.999
367.40 2.996
367.50 2.993
367.60 2.99
367.70 2.986
367.80 2.983
367.90 2.98
368.00 2.977
368.10 2.974
368.20 2.971
368.30 2.968
368.40 2.965
368.50 2.962
368.60 2.959
368.70 2.956
368.80 2.952
368.90 2.949
369.00 2.946
369.10 2.943
369.20 2.94
369.30 2.937
369.40 2.934
369.50 2.931
369.60 2.928
369.70 2.925
369.80 2.922
369.90 2.919
370.00 2.916
370.10 2.913
370.20 2.91
370.30 2.907
370.40 2.904
370.50 2.901
370.60 2.898
370.70 2.895
370.80 2.892
370.90 2.889
371.00 2.886
371.10 2.883
371.20 2.88
371.30 2.877
371.40 2.874
371.50 2.871
371.60 2.868
371.70 2.865
371.80 2.862
371.90 2.859
372.00 2.856
372.10 2.853
372.20 2.851
372.30 2.848
372.40 2.845
372.50 2.842
372.60 2.839
372.70 2.836
372.80 2.833
372.90 2.831
373.00 2.828
373.10 2.825
373.20 2.822
373.30 2.819
373.40 2.816
373.50 2.813
373.60 2.811
373.70 2.808
373.80 2.805
373.90 2.802
374.00 2.799
374.10 2.796
374.20 2.794
374.30 2.791
374.40 2.788
374.50 2.785
374.60 2.782
374.70 2.78
374.80 2.777
374.90 2.774
375.00 2.771
375.10 2.769
375.20 2.766
375.30 2.763
375.40 2.76
375.50 2.757
375.60 2.755
375.70 2.752
375.80 2.749
375.90 2.746
376.00 2.744
376.10 2.741
376.20 2.738
376.30 2.736
376.40 2.733
376.50 2.73
376.60 2.727
376.70 2.725
376.80 2.722
376.90 2.719
377.00 2.717
377.10 2.714
377.20 2.712
377.30 2.709
377.40 2.706
377.50 2.704
377.60 2.701
377.70 2.699
377.80 2.696
377.90 2.694
378.00 2.691
378.10 2.689
378.20 2.686
378.30 2.683
378.40 2.681
378.50 2.678
378.60 2.676
378.70 2.673
378.80 2.671
378.90 2.668
379.00 2.666
379.10 2.663
379.20 2.661
379.30 2.658
379.40 2.656
379.50 2.653
379.60 2.651
379.70 2.648
379.80 2.646
379.90 2.643
380.00 2.641
380.10 2.639
380.20 2.636
380.30 2.634
380.40 2.632
380.50 2.629
380.60 2.627
380.70 2.625
380.80 2.623
380.90 2.62
381.00 2.618
381.10 2.616
381.20 2.613
381.30 2.611
381.40 2.608
381.50 2.606
381.60 2.604
381.70 2.601
381.80 2.599
381.90 2.596
382.00 2.594
382.10 2.591
382.20 2.589
382.30 2.586
382.40 2.583
382.50 2.581
382.60 2.578
382.70 2.576
382.80 2.573
382.90 2.57
383.00 2.568
383.10 2.565
383.20 2.563
383.30 2.56
383.40 2.558
383.50 2.556
383.60 2.553
383.70 2.551
383.80 2.55
383.90 2.548
384.00 2.546
384.10 2.544
384.20 2.543
384.30 2.541
384.40 2.539
384.50 2.538
384.60 2.536
384.70 2.534
384.80 2.532
384.90 2.53
385.00 2.528
385.10 2.526
385.20 2.524
385.30 2.522
385.40 2.52
385.50 2.518
385.60 2.516
385.70 2.514
385.80 2.511
385.90 2.509
386.00 2.506
386.10 2.504
386.20 2.501
386.30 2.499
386.40 2.496
386.50 2.493
386.60 2.49
386.70 2.487
386.80 2.485
386.90 2.481
387.00 2.478
387.10 2.475
387.20 2.472
387.30 2.469
387.40 2.465
387.50 2.462
387.60 2.459
387.70 2.455
387.80 2.452
387.90 2.448
388.00 2.445
388.10 2.441
388.20 2.438
388.30 2.434
388.40 2.431
388.50 2.428
388.60 2.425
388.70 2.422
388.80 2.42
388.90 2.418
389.00 2.416
389.10 2.414
389.20 2.413
389.30 2.412
389.40 2.412
389.50 2.411
389.60 2.411
389.70 2.411
389.80 2.41
389.90 2.41
390.00 2.41
390.10 2.409
390.20 2.409
390.30 2.409
390.40 2.408
390.50 2.408
390.60 2.407
390.70 2.406
390.80 2.406
390.90 2.405
391.00 2.404
391.10 2.403
391.20 2.402
391.30 2.401
391.40 2.4
391.50 2.398
391.60 2.397
391.70 2.396
391.80 2.394
391.90 2.392
392.00 2.391
392.10 2.389
392.20 2.387
392.30 2.385
392.40 2.383
392.50 2.38
392.60 2.378
392.70 2.376
392.80 2.373
392.90 2.371
393.00 2.368
393.10 2.365
393.20 2.362
393.30 2.359
393.40 2.356
393.50 2.352
393.60 2.349
393.70 2.346
393.80 2.342
393.90 2.338
394.00 2.334
394.10 2.33
394.20 2.326
394.30 2.322
394.40 2.318
394.50 2.313
394.60 2.309
394.70 2.304
394.80 2.299
394.90 2.294
395.00 2.289
395.10 2.284
395.20 2.279
395.30 2.273
395.40 2.267
395.50 2.262
395.60 2.256
395.70 2.25
395.80 2.244
395.90 2.238
396.00 2.232
396.10 2.226
396.20 2.22
396.30 2.213
396.40 2.207
396.50 2.201
396.60 2.195
396.70 2.189
396.80 2.183
396.90 2.178
397.00 2.173
397.10 2.174
397.20 2.176
397.30 2.178
397.40 2.18
397.50 2.182
397.60 2.185
397.70 2.188
397.80 2.19
397.90 2.193
398.00 2.195
398.10 2.198
398.20 2.2
398.30 2.203
398.40 2.205
398.50 2.207
398.60 2.209
398.70 2.211
398.80 2.213
398.90 2.215
399.00 2.216
399.10 2.218
399.20 2.219
399.30 2.221
399.40 2.222
399.50 2.223
399.60 2.224
399.70 2.225
399.80 2.226
399.90 2.226
400.00 2.227
400.10 2.227
400.20 2.227
400.30 2.228
400.40 2.228
400.50 2.228
400.60 2.228
400.70 2.228
400.80 2.227
400.90 2.227
401.00 2.227
401.10 2.226
401.20 2.226
401.30 2.225
401.40 2.224
401.50 2.223
401.60 2.222
401.70 2.221
401.80 2.22
401.90 2.219
402.00 2.218
402.10 2.217
402.20 2.216
402.30 2.214
402.40 2.213
402.50 2.211
402.60 2.21
402.70 2.208
402.80 2.206
402.90 2.205
403.00 2.203
403.10 2.201
403.20 2.199
403.30 2.197
403.40 2.195
403.50 2.193
403.60 2.191
403.70 2.189
403.80 2.186
403.90 2.184
404.00 2.181
404.10 2.179
404.20 2.176
404.30 2.174
404.40 2.171
404.50 2.168
404.60 2.165
404.70 2.162
404.80 2.16
404.90 2.156
405.00 2.153
405.10 2.15
405.20 2.147
405.30 2.143
405.40 2.14
405.50 2.136
405.60 2.133
405.70 2.129
405.80 2.125
405.90 2.121
406.00 2.117
406.10 2.113
406.20 2.108
406.30 2.104
406.40 2.099
406.50 2.095
406.60 2.09
406.70 2.085
406.80 2.08
406.90 2.075
407.00 2.069
407.10 2.064
407.20 2.058
407.30 2.052
407.40 2.046
407.50 2.04
407.60 2.034
407.70 2.027
407.80 2.021
407.90 2.014
408.00 2.007
408.10 1.999
408.20 1.992
408.30 1.984
408.40 1.976
408.50 1.968
408.60 1.96
408.70 1.952
408.80 1.943
408.90 1.934
409.00 1.925
409.10 1.916
409.20 1.907
409.30 1.897
409.40 1.888
409.50 1.879
409.60 1.869
409.70 1.861
409.80 1.853
409.90 1.845
410.00 1.842
410.10 1.841
410.20 1.843
410.30 1.838
410.40 1.837
410.50 1.839
410.60 1.843
410.70 1.849
410.80 1.855
410.90 1.861
411.00 1.867
411.10 1.873
411.20 1.879
411.30 1.885
411.40 1.89
411.50 1.896
411.60 1.901
411.70 1.906
411.80 1.911
411.90 1.916
412.00 1.92
412.10 1.924
412.20 1.928
412.30 1.932
412.40 1.936
412.50 1.939
412.60 1.942
412.70 1.945
412.80 1.948
412.90 1.951
413.00 1.953
413.10 1.956
413.20 1.958
413.30 1.96
413.40 1.962
413.50 1.963
413.60 1.965
413.70 1.966
413.80 1.968
413.90 1.969
414.00 1.97
414.10 1.971
414.20 1.972
414.30 1.972
414.40 1.973
414.50 1.973
414.60 1.974
414.70 1.974
414.80 1.974
414.90 1.975
415.00 1.975
415.10 1.975
415.20 1.975
415.30 1.974
415.40 1.974
415.50 1.974
415.60 1.974
415.70 1.973
415.80 1.973
415.90 1.972
416.00 1.972
416.10 1.971
416.20 1.97
416.30 1.97
416.40 1.969
416.50 1.968
416.60 1.967
416.70 1.967
416.80 1.966
416.90 1.965
417.00 1.964
417.10 1.963
417.20 1.962
417.30 1.961
417.40 1.96
417.50 1.958
417.60 1.957
417.70 1.956
417.80 1.955
417.90 1.954
418.00 1.953
418.10 1.951
418.20 1.95
418.30 1.949
418.40 1.947
418.50 1.946
418.60 1.945
418.70 1.943
418.80 1.942
418.90 1.941
419.00 1.939
419.10 1.938
419.20 1.936
419.30 1.935
419.40 1.934
419.50 1.932
419.60 1.931
419.70 1.929
419.80 1.928
419.90 1.926
420.00 1.925
420.10 1.923
420.20 1.922
420.30 1.92
420.40 1.918
420.50 1.917
420.60 1.915
420.70 1.914
420.80 1.912
420.90 1.911
421.00 1.909
421.10 1.907
421.20 1.906
421.30 1.904
421.40 1.902
421.50 1.901
421.60 1.899
421.70 1.897
421.80 1.896
421.90 1.894
422.00 1.892
422.10 1.891
422.20 1.889
422.30 1.887
422.40 1.886
422.50 1.884
422.60 1.882
422.70 1.881
422.80 1.879
422.90 1.877
423.00 1.875
423.10 1.874
423.20 1.872
423.30 1.87
423.40 1.868
423.50 1.866
423.60 1.865
423.70 1.863
423.80 1.861
423.90 1.859
424.00 1.857
424.10 1.856
424.20 1.854
424.30 1.852
424.40 1.85
424.50 1.848
424.60 1.846
424.70 1.844
424.80 1.842
424.90 1.84
425.00 1.839
425.10 1.837
425.20 1.835
425.30 1.833
425.40 1.831
425.50 1.829
425.60 1.827
425.70 1.825
425.80 1.823
425.90 1.821
426.00 1.818
426.10 1.816
426.20 1.814
426.30 1.812
426.40 1.81
426.50 1.808
426.60 1.806
426.70 1.803
426.80 1.801
426.90 1.799
427.00 1.797
427.10 1.794
427.20 1.792
427.30 1.789
427.40 1.787
427.50 1.785
427.60 1.782
427.70 1.78
427.80 1.777
427.90 1.774
428.00 1.772
428.10 1.769
428.20 1.766
428.30 1.764
428.40 1.761
428.50 1.758
428.60 1.755
428.70 1.752
428.80 1.749
428.90 1.746
429.00 1.743
429.10 1.739
429.20 1.736
429.30 1.733
429.40 1.729
429.50 1.726
429.60 1.722
429.70 1.718
429.80 1.714
429.90 1.71
430.00 1.706
430.10 1.702
430.20 1.698
430.30 1.694
430.40 1.689
430.50 1.684
430.60 1.68
430.70 1.675
430.80 1.67
430.90 1.665
431.00 1.659
431.10 1.654
431.20 1.648
431.30 1.642
431.40 1.636
431.50 1.63
431.60 1.623
431.70 1.616
431.80 1.61
431.90 1.602
432.00 1.595
432.10 1.588
432.20 1.58
432.30 1.572
432.40 1.564
432.50 1.555
432.60 1.546
432.70 1.537
432.80 1.528
432.90 1.519
433.00 1.51
433.10 1.5
433.20 1.49
433.30 1.48
433.40 1.471
433.50 1.461
433.60 1.452
433.70 1.443
433.80 1.434
433.90 1.425
434.00 1.417
434.10 1.416
434.20 1.422
434.30 1.429
434.40 1.435
434.50 1.442
434.60 1.449
434.70 1.456
434.80 1.463
434.90 1.47
435.00 1.478
435.10 1.485
435.20 1.492
435.30 1.498
435.40 1.505
435.50 1.511
435.60 1.517
435.70 1.523
435.80 1.528
435.90 1.533
436.00 1.538
436.10 1.543
436.20 1.547
436.30 1.552
436.40 1.556
436.50 1.56
436.60 1.563
436.70 1.566
436.80 1.57
436.90 1.573
437.00 1.575
437.10 1.578
437.20 1.58
437.30 1.583
437.40 1.585
437.50 1.587
437.60 1.588
437.70 1.59
437.80 1.592
437.90 1.593
438.00 1.594
438.10 1.595
438.20 1.596
438.30 1.597
438.40 1.598
438.50 1.599
438.60 1.599
438.70 1.6
438.80 1.6
438.90 1.601
439.00 1.601
439.10 1.601
439.20 1.601
439.30 1.601
439.40 1.601
439.50 1.601
439.60 1.601
439.70 1.601
439.80 1.601
439.90 1.601
440.00 1.6
440.10 1.6
440.20 1.6
440.30 1.599
440.40 1.599
440.50 1.598
440.60 1.598
440.70 1.597
440.80 1.596
440.90 1.596
441.00 1.595
441.10 1.594
441.20 1.594
441.30 1.593
441.40 1.592
441.50 1.591
441.60 1.591
441.70 1.59
441.80 1.589
441.90 1.588
442.00 1.587
442.10 1.586
442.20 1.585
442.30 1.584
442.40 1.583
442.50 1.582
442.60 1.581
442.70 1.58
442.80 1.579
442.90 1.578
443.00 1.577
443.10 1.576
443.20 1.575
443.30 1.574
443.40 1.573
443.50 1.572
443.60 1.571
443.70 1.57
443.80 1.569
443.90 1.568
444.00 1.567
444.10 1.566
444.20 1.564
444.30 1.563
444.40 1.562
444.50 1.561
444.60 1.56
444.70 1.559
444.80 1.558
444.90 1.556
445.00 1.555
445.10 1.554
445.20 1.553
445.30 1.552
445.40 1.551
445.50 1.549
445.60 1.548
445.70 1.547
445.80 1.546
445.90 1.545
446.00 1.543
446.10 1.542
446.20 1.541
446.30 1.54
446.40 1.539
446.50 1.538
446.60 1.536
446.70 1.535
446.80 1.534
446.90 1.533
447.00 1.531
447.10 1.53
447.20 1.529
447.30 1.528
447.40 1.527
447.50 1.525
447.60 1.524
447.70 1.523
447.80 1.522
447.90 1.521
448.00 1.519
448.10 1.518
448.20 1.517
448.30 1.516
448.40 1.514
448.50 1.513
448.60 1.512
448.70 1.511
448.80 1.51
448.90 1.508
449.00 1.507
449.10 1.506
449.20 1.505
449.30 1.503
449.40 1.502
449.50 1.501
449.60 1.5
449.70 1.499
449.80 1.497
449.90 1.496
450.00 1.495
450.10 1.494
450.20 1.492
450.30 1.491
450.40 1.49
450.50 1.489
450.60 1.488
450.70 1.486
450.80 1.485
450.90 1.484
451.00 1.483
451.10 1.481
451.20 1.48
451.30 1.479
451.40 1.478
451.50 1.477
451.60 1.475
451.70 1.474
451.80 1.473
451.90 1.472
452.00 1.47
452.10 1.469
452.20 1.468
452.30 1.467
452.40 1.466
452.50 1.464
452.60 1.463
452.70 1.462
452.80 1.461
452.90 1.46
453.00 1.458
453.10 1.457
453.20 1.456
453.30 1.455
453.40 1.454
453.50 1.452
453.60 1.451
453.70 1.45
453.80 1.449
453.90 1.448
454.00 1.446
454.10 1.445
