# Version 2.1 - nm, norm@500 to 1, cut digits, bergeron_2250_70.dat_2250
# Wavelength(nm)  Flambda(ergs/cm^s/s/nm)
300.00 0.0303
300.10 0.03041
300.20 0.03052
300.30 0.03064
300.40 0.03075
300.50 0.03087
300.60 0.03098
300.70 0.03109
300.80 0.03121
300.90 0.03132
301.00 0.03144
301.10 0.03155
301.20 0.03167
301.30 0.03178
301.40 0.03189
301.50 0.03201
301.60 0.03212
301.70 0.03223
301.80 0.03234
301.90 0.03246
302.00 0.03257
302.10 0.03269
302.20 0.03281
302.30 0.03293
302.40 0.03306
302.50 0.03318
302.60 0.0333
302.70 0.03342
302.80 0.03354
302.90 0.03366
303.00 0.03378
303.10 0.0339
303.20 0.03402
303.30 0.03414
303.40 0.03426
303.50 0.03438
303.60 0.0345
303.70 0.03462
303.80 0.03474
303.90 0.03486
304.00 0.03498
304.10 0.0351
304.20 0.03523
304.30 0.03536
304.40 0.03549
304.50 0.03561
304.60 0.03574
304.70 0.03587
304.80 0.03599
304.90 0.03612
305.00 0.03625
305.10 0.03637
305.20 0.0365
305.30 0.03663
305.40 0.03675
305.50 0.03688
305.60 0.037
305.70 0.03713
305.80 0.03726
305.90 0.03738
306.00 0.03751
306.10 0.03764
306.20 0.03777
306.30 0.03791
306.40 0.03804
306.50 0.03818
306.60 0.03831
306.70 0.03844
306.80 0.03858
306.90 0.03871
307.00 0.03885
307.10 0.03898
307.20 0.03911
307.30 0.03924
307.40 0.03938
307.50 0.03951
307.60 0.03964
307.70 0.03977
307.80 0.0399
307.90 0.04004
308.00 0.04017
308.10 0.04031
308.20 0.04045
308.30 0.04059
308.40 0.04073
308.50 0.04087
308.60 0.04101
308.70 0.04115
308.80 0.0413
308.90 0.04144
309.00 0.04158
309.10 0.04172
309.20 0.04185
309.30 0.04199
309.40 0.04213
309.50 0.04227
309.60 0.04241
309.70 0.04255
309.80 0.04269
309.90 0.04283
310.00 0.04297
310.10 0.04312
310.20 0.04326
310.30 0.04341
310.40 0.04356
310.50 0.04371
310.60 0.04386
310.70 0.044
310.80 0.04415
310.90 0.0443
311.00 0.04445
311.10 0.04459
311.20 0.04474
311.30 0.04489
311.40 0.04503
311.50 0.04518
311.60 0.04533
311.70 0.04547
311.80 0.04562
311.90 0.04576
312.00 0.04591
312.10 0.04606
312.20 0.0462
312.30 0.04636
312.40 0.04651
312.50 0.04667
312.60 0.04682
312.70 0.04698
312.80 0.04713
312.90 0.04729
313.00 0.04744
313.10 0.04759
313.20 0.04775
313.30 0.0479
313.40 0.04806
313.50 0.04821
313.60 0.04836
313.70 0.04852
313.80 0.04867
313.90 0.04882
314.00 0.04898
314.10 0.04914
314.20 0.0493
314.30 0.04946
314.40 0.04962
314.50 0.04979
314.60 0.04995
314.70 0.05011
314.80 0.05027
314.90 0.05043
315.00 0.05059
315.10 0.05076
315.20 0.05092
315.30 0.05108
315.40 0.05124
315.50 0.0514
315.60 0.05156
315.70 0.05172
315.80 0.05188
315.90 0.05204
316.00 0.0522
316.10 0.05237
316.20 0.05253
316.30 0.0527
316.40 0.05287
316.50 0.05304
316.60 0.05321
316.70 0.05338
316.80 0.05355
316.90 0.05372
317.00 0.05389
317.10 0.05406
317.20 0.05423
317.30 0.05439
317.40 0.05456
317.50 0.05473
317.60 0.0549
317.70 0.05506
317.80 0.05523
317.90 0.0554
318.00 0.05557
318.10 0.05574
318.20 0.05592
318.30 0.05609
318.40 0.05627
318.50 0.05645
318.60 0.05663
318.70 0.0568
318.80 0.05698
318.90 0.05716
319.00 0.05733
319.10 0.05751
319.20 0.05768
319.30 0.05786
319.40 0.05803
319.50 0.05821
319.60 0.05838
319.70 0.05856
319.80 0.05873
319.90 0.05891
320.00 0.05909
320.10 0.05927
320.20 0.05945
320.30 0.05964
320.40 0.05982
320.50 0.06001
320.60 0.06019
320.70 0.06037
320.80 0.06056
320.90 0.06074
321.00 0.06093
321.10 0.06111
321.20 0.06129
321.30 0.06148
321.40 0.06166
321.50 0.06184
321.60 0.06202
321.70 0.0622
321.80 0.06239
321.90 0.06257
322.00 0.06275
322.10 0.06295
322.20 0.06314
322.30 0.06333
322.40 0.06352
322.50 0.06371
322.60 0.06391
322.70 0.0641
322.80 0.06429
322.90 0.06448
323.00 0.06467
323.10 0.06487
323.20 0.06506
323.30 0.06525
323.40 0.06544
323.50 0.06563
323.60 0.06582
323.70 0.06601
323.80 0.0662
323.90 0.06639
324.00 0.06658
324.10 0.06678
324.20 0.06698
324.30 0.06718
324.40 0.06738
324.50 0.06758
324.60 0.06778
324.70 0.06798
324.80 0.06818
324.90 0.06838
325.00 0.06858
325.10 0.06878
325.20 0.06898
325.30 0.06918
325.40 0.06938
325.50 0.06957
325.60 0.06977
325.70 0.06997
325.80 0.07017
325.90 0.07037
326.00 0.07057
326.10 0.07077
326.20 0.07098
326.30 0.07119
326.40 0.0714
326.50 0.07161
326.60 0.07181
326.70 0.07202
326.80 0.07223
326.90 0.07244
327.00 0.07265
327.10 0.07285
327.20 0.07306
327.30 0.07327
327.40 0.07347
327.50 0.07368
327.60 0.07388
327.70 0.07409
327.80 0.07429
327.90 0.0745
328.00 0.07471
328.10 0.07493
328.20 0.07514
328.30 0.07536
328.40 0.07557
328.50 0.07579
328.60 0.07601
328.70 0.07622
328.80 0.07644
328.90 0.07666
329.00 0.07687
329.10 0.07709
329.20 0.0773
329.30 0.07752
329.40 0.07773
329.50 0.07795
329.60 0.07816
329.70 0.07837
329.80 0.07859
329.90 0.0788
330.00 0.07901
330.10 0.07924
330.20 0.07946
330.30 0.07969
330.40 0.07992
330.50 0.08014
330.60 0.08037
330.70 0.08059
330.80 0.08082
330.90 0.08104
331.00 0.08126
331.10 0.08149
331.20 0.08171
331.30 0.08193
331.40 0.08216
331.50 0.08238
331.60 0.0826
331.70 0.08282
331.80 0.08304
331.90 0.08326
332.00 0.08349
332.10 0.08372
332.20 0.08396
332.30 0.08419
332.40 0.08442
332.50 0.08466
332.60 0.08489
332.70 0.08512
332.80 0.08536
332.90 0.08559
333.00 0.08582
333.10 0.08605
333.20 0.08628
333.30 0.08652
333.40 0.08675
333.50 0.08698
333.60 0.08721
333.70 0.08744
333.80 0.08767
333.90 0.0879
334.00 0.08813
334.10 0.08837
334.20 0.08861
334.30 0.08886
334.40 0.0891
334.50 0.08934
334.60 0.08958
334.70 0.08982
334.80 0.09007
334.90 0.09031
335.00 0.09055
335.10 0.09079
335.20 0.09103
335.30 0.09127
335.40 0.09151
335.50 0.09175
335.60 0.09199
335.70 0.09222
335.80 0.09246
335.90 0.0927
336.00 0.09294
336.10 0.09319
336.20 0.09344
336.30 0.09369
336.40 0.09394
336.50 0.09419
336.60 0.09444
336.70 0.0947
336.80 0.09494
336.90 0.09519
337.00 0.09544
337.10 0.09569
337.20 0.09594
337.30 0.09619
337.40 0.09644
337.50 0.09668
337.60 0.09693
337.70 0.09718
337.80 0.09743
337.90 0.09767
338.00 0.09792
338.10 0.09818
338.20 0.09844
338.30 0.0987
338.40 0.09896
338.50 0.09922
338.60 0.09948
338.70 0.09974
338.80 0.1
338.90 0.1003
339.00 0.1005
339.10 0.1008
339.20 0.101
339.30 0.1013
339.40 0.1015
339.50 0.1018
339.60 0.1021
339.70 0.1023
339.80 0.1026
339.90 0.1028
340.00 0.1031
340.10 0.1033
340.20 0.1036
340.30 0.1039
340.40 0.1041
340.50 0.1044
340.60 0.1047
340.70 0.105
340.80 0.1052
340.90 0.1055
341.00 0.1058
341.10 0.106
341.20 0.1063
341.30 0.1066
341.40 0.1068
341.50 0.1071
341.60 0.1073
341.70 0.1076
341.80 0.1079
341.90 0.1081
342.00 0.1084
342.10 0.1087
342.20 0.109
342.30 0.1092
342.40 0.1095
342.50 0.1098
342.60 0.1101
342.70 0.1103
342.80 0.1106
342.90 0.1109
343.00 0.1112
343.10 0.1114
343.20 0.1117
343.30 0.112
343.40 0.1123
343.50 0.1125
343.60 0.1128
343.70 0.1131
343.80 0.1134
343.90 0.1136
344.00 0.1139
344.10 0.1142
344.20 0.1145
344.30 0.1148
344.40 0.1151
344.50 0.1153
344.60 0.1156
344.70 0.1159
344.80 0.1162
344.90 0.1165
345.00 0.1168
345.10 0.117
345.20 0.1173
345.30 0.1176
345.40 0.1179
345.50 0.1182
345.60 0.1185
345.70 0.1187
345.80 0.119
345.90 0.1193
346.00 0.1196
346.10 0.1199
346.20 0.1202
346.30 0.1205
346.40 0.1208
346.50 0.1211
346.60 0.1214
346.70 0.1217
346.80 0.1219
346.90 0.1222
347.00 0.1225
347.10 0.1228
347.20 0.1231
347.30 0.1234
347.40 0.1237
347.50 0.124
347.60 0.1243
347.70 0.1246
347.80 0.1249
347.90 0.1252
348.00 0.1254
348.10 0.1258
348.20 0.1261
348.30 0.1264
348.40 0.1267
348.50 0.127
348.60 0.1273
348.70 0.1276
348.80 0.1279
348.90 0.1282
349.00 0.1285
349.10 0.1288
349.20 0.1291
349.30 0.1294
349.40 0.1297
349.50 0.13
349.60 0.1303
349.70 0.1306
349.80 0.1309
349.90 0.1312
350.00 0.1315
350.10 0.1318
350.20 0.1321
350.30 0.1324
350.40 0.1327
350.50 0.1331
350.60 0.1334
350.70 0.1337
350.80 0.134
350.90 0.1343
351.00 0.1346
351.10 0.1349
351.20 0.1352
351.30 0.1355
351.40 0.1359
351.50 0.1362
351.60 0.1365
351.70 0.1368
351.80 0.1371
351.90 0.1374
352.00 0.1377
352.10 0.138
352.20 0.1383
352.30 0.1387
352.40 0.139
352.50 0.1393
352.60 0.1396
352.70 0.14
352.80 0.1403
352.90 0.1406
353.00 0.1409
353.10 0.1412
353.20 0.1416
353.30 0.1419
353.40 0.1422
353.50 0.1425
353.60 0.1428
353.70 0.1432
353.80 0.1435
353.90 0.1438
354.00 0.1441
354.10 0.1444
354.20 0.1448
354.30 0.1451
354.40 0.1454
354.50 0.1458
354.60 0.1461
354.70 0.1464
354.80 0.1468
354.90 0.1471
355.00 0.1474
355.10 0.1477
355.20 0.1481
355.30 0.1484
355.40 0.1487
355.50 0.149
355.60 0.1494
355.70 0.1497
355.80 0.15
355.90 0.1503
356.00 0.1507
356.10 0.151
356.20 0.1514
356.30 0.1517
356.40 0.152
356.50 0.1524
356.60 0.1527
356.70 0.1531
356.80 0.1534
356.90 0.1537
357.00 0.1541
357.10 0.1544
357.20 0.1548
357.30 0.1551
357.40 0.1554
357.50 0.1558
357.60 0.1561
357.70 0.1564
357.80 0.1568
357.90 0.1571
358.00 0.1574
358.10 0.1578
358.20 0.1581
358.30 0.1585
358.40 0.1588
358.50 0.1592
358.60 0.1595
358.70 0.1599
358.80 0.1602
358.90 0.1606
359.00 0.1609
359.10 0.1613
359.20 0.1616
359.30 0.162
359.40 0.1623
359.50 0.1627
359.60 0.163
359.70 0.1634
359.80 0.1637
359.90 0.164
360.00 0.1644
360.10 0.1647
360.20 0.1651
360.30 0.1655
360.40 0.1658
360.50 0.1662
360.60 0.1665
360.70 0.1669
360.80 0.1673
360.90 0.1676
361.00 0.168
361.10 0.1683
361.20 0.1687
361.30 0.169
361.40 0.1694
361.50 0.1697
361.60 0.1701
361.70 0.1704
361.80 0.1708
361.90 0.1712
362.00 0.1715
362.10 0.1719
362.20 0.1722
362.30 0.1726
362.40 0.173
362.50 0.1733
362.60 0.1737
362.70 0.174
362.80 0.1744
362.90 0.1748
363.00 0.1751
363.10 0.1755
363.20 0.1759
363.30 0.1762
363.40 0.1766
363.50 0.177
363.60 0.1774
363.70 0.1777
363.80 0.1781
363.90 0.1785
364.00 0.1788
364.10 0.1792
364.20 0.1796
364.30 0.1799
364.40 0.1803
364.50 0.1807
364.60 0.181
364.70 0.1814
364.80 0.1818
364.90 0.1822
365.00 0.1826
365.10 0.1829
365.20 0.1833
365.30 0.1837
365.40 0.1841
365.50 0.1844
365.60 0.1848
365.70 0.1852
365.80 0.1856
365.90 0.1859
366.00 0.1863
366.10 0.1867
366.20 0.1871
366.30 0.1875
366.40 0.1878
366.50 0.1882
366.60 0.1886
366.70 0.189
366.80 0.1894
366.90 0.1898
367.00 0.1902
367.10 0.1905
367.20 0.1909
367.30 0.1913
367.40 0.1917
367.50 0.1921
367.60 0.1924
367.70 0.1928
367.80 0.1932
367.90 0.1936
368.00 0.194
368.10 0.1944
368.20 0.1948
368.30 0.1952
368.40 0.1955
368.50 0.1959
368.60 0.1963
368.70 0.1967
368.80 0.1971
368.90 0.1975
369.00 0.1979
369.10 0.1983
369.20 0.1987
369.30 0.1991
369.40 0.1995
369.50 0.1999
369.60 0.2003
369.70 0.2006
369.80 0.201
369.90 0.2014
370.00 0.2018
370.10 0.2022
370.20 0.2026
370.30 0.203
370.40 0.2034
370.50 0.2038
370.60 0.2042
370.70 0.2046
370.80 0.205
370.90 0.2054
371.00 0.2059
371.10 0.2063
371.20 0.2067
371.30 0.2071
371.40 0.2075
371.50 0.2079
371.60 0.2082
371.70 0.2086
371.80 0.209
371.90 0.2094
372.00 0.2098
372.10 0.2103
372.20 0.2107
372.30 0.2111
372.40 0.2115
372.50 0.2119
372.60 0.2123
372.70 0.2127
372.80 0.2131
372.90 0.2136
373.00 0.214
373.10 0.2144
373.20 0.2148
373.30 0.2152
373.40 0.2156
373.50 0.216
373.60 0.2164
373.70 0.2168
373.80 0.2172
373.90 0.2176
374.00 0.218
374.10 0.2185
374.20 0.2189
374.30 0.2193
374.40 0.2197
374.50 0.2202
374.60 0.2206
374.70 0.221
374.80 0.2214
374.90 0.2218
375.00 0.2223
375.10 0.2227
375.20 0.2231
375.30 0.2235
375.40 0.2239
375.50 0.2244
375.60 0.2248
375.70 0.2252
375.80 0.2256
375.90 0.226
376.00 0.2264
376.10 0.2269
376.20 0.2273
376.30 0.2277
376.40 0.2281
376.50 0.2286
376.60 0.229
376.70 0.2294
376.80 0.2298
376.90 0.2303
377.00 0.2307
377.10 0.2311
377.20 0.2316
377.30 0.232
377.40 0.2324
377.50 0.2329
377.60 0.2333
377.70 0.2337
377.80 0.2341
377.90 0.2346
378.00 0.235
378.10 0.2354
378.20 0.2359
378.30 0.2363
378.40 0.2367
378.50 0.2372
378.60 0.2376
378.70 0.238
378.80 0.2385
378.90 0.2389
379.00 0.2393
379.10 0.2398
379.20 0.2402
379.30 0.2407
379.40 0.2411
379.50 0.2415
379.60 0.242
379.70 0.2424
379.80 0.2429
379.90 0.2433
380.00 0.2437
380.10 0.2442
380.20 0.2446
380.30 0.2451
380.40 0.2455
380.50 0.246
380.60 0.2464
380.70 0.2468
380.80 0.2473
380.90 0.2477
381.00 0.2482
381.10 0.2486
381.20 0.2491
381.30 0.2495
381.40 0.25
381.50 0.2504
381.60 0.2509
381.70 0.2513
381.80 0.2517
381.90 0.2522
382.00 0.2526
382.10 0.2531
382.20 0.2536
382.30 0.254
382.40 0.2545
382.50 0.2549
382.60 0.2554
382.70 0.2558
382.80 0.2563
382.90 0.2567
383.00 0.2572
383.10 0.2576
383.20 0.2581
383.30 0.2585
383.40 0.259
383.50 0.2595
383.60 0.2599
383.70 0.2604
383.80 0.2608
383.90 0.2613
384.00 0.2617
384.10 0.2622
384.20 0.2627
384.30 0.2631
384.40 0.2636
384.50 0.264
384.60 0.2645
384.70 0.265
384.80 0.2654
384.90 0.2659
385.00 0.2663
385.10 0.2668
385.20 0.2673
385.30 0.2677
385.40 0.2682
385.50 0.2687
385.60 0.2691
385.70 0.2696
385.80 0.2701
385.90 0.2705
386.00 0.271
386.10 0.2715
386.20 0.2719
386.30 0.2724
386.40 0.2729
386.50 0.2733
386.60 0.2738
386.70 0.2743
386.80 0.2748
386.90 0.2752
387.00 0.2757
387.10 0.2762
387.20 0.2766
387.30 0.2771
387.40 0.2776
387.50 0.2781
387.60 0.2785
387.70 0.279
387.80 0.2795
387.90 0.28
388.00 0.2804
388.10 0.2809
388.20 0.2814
388.30 0.2819
388.40 0.2823
388.50 0.2828
388.60 0.2833
388.70 0.2838
388.80 0.2842
388.90 0.2847
389.00 0.2852
389.10 0.2857
389.20 0.2862
389.30 0.2866
389.40 0.2871
389.50 0.2876
389.60 0.2881
389.70 0.2886
389.80 0.2891
389.90 0.2895
390.00 0.29
390.10 0.2905
390.20 0.291
390.30 0.2915
390.40 0.292
390.50 0.2925
390.60 0.2929
390.70 0.2934
390.80 0.2939
390.90 0.2944
391.00 0.2949
391.10 0.2954
391.20 0.2959
391.30 0.2964
391.40 0.2968
391.50 0.2973
391.60 0.2978
391.70 0.2983
391.80 0.2988
391.90 0.2993
392.00 0.2998
392.10 0.3003
392.20 0.3008
392.30 0.3013
392.40 0.3018
392.50 0.3023
392.60 0.3027
392.70 0.3032
392.80 0.3037
392.90 0.3042
393.00 0.3047
393.10 0.3052
393.20 0.3057
393.30 0.3062
393.40 0.3067
393.50 0.3072
393.60 0.3077
393.70 0.3082
393.80 0.3087
393.90 0.3092
394.00 0.3097
394.10 0.3102
394.20 0.3107
394.30 0.3112
394.40 0.3117
394.50 0.3122
394.60 0.3127
394.70 0.3132
394.80 0.3137
394.90 0.3142
395.00 0.3147
395.10 0.3153
395.20 0.3158
395.30 0.3163
395.40 0.3168
395.50 0.3173
395.60 0.3178
395.70 0.3183
395.80 0.3188
395.90 0.3193
396.00 0.3198
396.10 0.3203
396.20 0.3208
396.30 0.3213
396.40 0.3219
396.50 0.3224
396.60 0.3229
396.70 0.3234
396.80 0.3239
396.90 0.3244
397.00 0.3249
397.10 0.3254
397.20 0.3259
397.30 0.3265
397.40 0.327
397.50 0.3275
397.60 0.328
397.70 0.3285
397.80 0.329
397.90 0.3296
398.00 0.3301
398.10 0.3306
398.20 0.3311
398.30 0.3316
398.40 0.3321
398.50 0.3327
398.60 0.3332
398.70 0.3337
398.80 0.3342
398.90 0.3347
399.00 0.3353
399.10 0.3358
399.20 0.3363
399.30 0.3368
399.40 0.3373
399.50 0.3379
399.60 0.3384
399.70 0.3389
399.80 0.3394
399.90 0.34
400.00 0.3405
400.10 0.341
400.20 0.3415
400.30 0.3421
400.40 0.3426
400.50 0.3431
400.60 0.3436
400.70 0.3442
400.80 0.3447
400.90 0.3452
401.00 0.3457
401.10 0.3463
401.20 0.3468
401.30 0.3473
401.40 0.3479
401.50 0.3484
401.60 0.3489
401.70 0.3495
401.80 0.35
401.90 0.3505
402.00 0.351
402.10 0.3516
402.20 0.3521
402.30 0.3527
402.40 0.3532
402.50 0.3537
402.60 0.3542
402.70 0.3548
402.80 0.3553
402.90 0.3559
403.00 0.3564
403.10 0.3569
403.20 0.3575
403.30 0.358
403.40 0.3585
403.50 0.3591
403.60 0.3596
403.70 0.3602
403.80 0.3607
403.90 0.3612
404.00 0.3618
404.10 0.3623
404.20 0.3628
404.30 0.3634
404.40 0.3639
404.50 0.3645
404.60 0.365
404.70 0.3656
404.80 0.3661
404.90 0.3666
405.00 0.3672
405.10 0.3677
405.20 0.3683
405.30 0.3688
405.40 0.3694
405.50 0.3699
405.60 0.3705
405.70 0.371
405.80 0.3716
405.90 0.3721
406.00 0.3726
406.10 0.3732
406.20 0.3737
406.30 0.3743
406.40 0.3748
406.50 0.3754
406.60 0.3759
406.70 0.3765
406.80 0.377
406.90 0.3776
407.00 0.3781
407.10 0.3787
407.20 0.3792
407.30 0.3798
407.40 0.3803
407.50 0.3809
407.60 0.3815
407.70 0.382
407.80 0.3826
407.90 0.3831
408.00 0.3837
408.10 0.3842
408.20 0.3848
408.30 0.3853
408.40 0.3859
408.50 0.3865
408.60 0.387
408.70 0.3876
408.80 0.3881
408.90 0.3887
409.00 0.3892
409.10 0.3898
409.20 0.3904
409.30 0.3909
409.40 0.3915
409.50 0.392
409.60 0.3926
409.70 0.3932
409.80 0.3937
409.90 0.3943
410.00 0.3948
410.10 0.3954
410.20 0.396
410.30 0.3965
410.40 0.3971
410.50 0.3977
410.60 0.3982
410.70 0.3988
410.80 0.3994
410.90 0.3999
411.00 0.4005
411.10 0.4011
411.20 0.4016
411.30 0.4022
411.40 0.4028
411.50 0.4033
411.60 0.4039
411.70 0.4045
411.80 0.405
411.90 0.4056
412.00 0.4062
412.10 0.4067
412.20 0.4073
412.30 0.4079
412.40 0.4084
412.50 0.409
412.60 0.4096
412.70 0.4102
412.80 0.4107
412.90 0.4113
413.00 0.4119
413.10 0.4124
413.20 0.413
413.30 0.4136
413.40 0.4142
413.50 0.4147
413.60 0.4153
413.70 0.4159
413.80 0.4165
413.90 0.417
414.00 0.4176
414.10 0.4182
414.20 0.4188
414.30 0.4194
414.40 0.4199
414.50 0.4205
414.60 0.4211
414.70 0.4217
414.80 0.4222
414.90 0.4228
415.00 0.4234
415.10 0.424
415.20 0.4246
415.30 0.4251
415.40 0.4257
415.50 0.4263
415.60 0.4269
415.70 0.4275
415.80 0.4281
415.90 0.4286
416.00 0.4292
416.10 0.4298
416.20 0.4304
416.30 0.431
416.40 0.4316
416.50 0.4321
416.60 0.4327
416.70 0.4333
416.80 0.4339
416.90 0.4345
417.00 0.4351
417.10 0.4357
417.20 0.4362
417.30 0.4368
417.40 0.4374
417.50 0.438
417.60 0.4386
417.70 0.4392
417.80 0.4398
417.90 0.4404
418.00 0.441
418.10 0.4415
418.20 0.4421
418.30 0.4427
418.40 0.4433
418.50 0.4439
418.60 0.4445
418.70 0.4451
418.80 0.4457
418.90 0.4463
419.00 0.4469
419.10 0.4475
419.20 0.4481
419.30 0.4487
419.40 0.4492
419.50 0.4498
419.60 0.4504
419.70 0.451
419.80 0.4516
419.90 0.4522
420.00 0.4528
420.10 0.4534
420.20 0.454
420.30 0.4546
420.40 0.4552
420.50 0.4558
420.60 0.4564
420.70 0.457
420.80 0.4576
420.90 0.4582
421.00 0.4588
421.10 0.4594
421.20 0.46
421.30 0.4606
421.40 0.4612
421.50 0.4618
421.60 0.4624
421.70 0.463
421.80 0.4636
421.90 0.4642
422.00 0.4648
422.10 0.4654
422.20 0.466
422.30 0.4666
422.40 0.4672
422.50 0.4678
422.60 0.4684
422.70 0.469
422.80 0.4696
422.90 0.4703
423.00 0.4709
423.10 0.4715
423.20 0.4721
423.30 0.4727
423.40 0.4733
423.50 0.4739
423.60 0.4745
423.70 0.4751
423.80 0.4757
423.90 0.4763
424.00 0.4769
424.10 0.4775
424.20 0.4782
424.30 0.4788
424.40 0.4794
424.50 0.48
424.60 0.4806
424.70 0.4812
424.80 0.4818
424.90 0.4824
425.00 0.483
425.10 0.4837
425.20 0.4843
425.30 0.4849
425.40 0.4855
425.50 0.4861
425.60 0.4867
425.70 0.4873
425.80 0.488
425.90 0.4886
426.00 0.4892
426.10 0.4898
426.20 0.4904
426.30 0.491
426.40 0.4916
426.50 0.4923
426.60 0.4929
426.70 0.4935
426.80 0.4941
426.90 0.4947
427.00 0.4954
427.10 0.496
427.20 0.4966
427.30 0.4972
427.40 0.4978
427.50 0.4984
427.60 0.4991
427.70 0.4997
427.80 0.5003
427.90 0.5009
428.00 0.5015
428.10 0.5022
428.20 0.5028
428.30 0.5034
428.40 0.504
428.50 0.5047
428.60 0.5053
428.70 0.5059
428.80 0.5065
428.90 0.5072
429.00 0.5078
429.10 0.5084
429.20 0.509
429.30 0.5097
429.40 0.5103
429.50 0.5109
429.60 0.5115
429.70 0.5122
429.80 0.5128
429.90 0.5134
430.00 0.514
430.10 0.5147
430.20 0.5153
430.30 0.5159
430.40 0.5165
430.50 0.5172
430.60 0.5178
430.70 0.5184
430.80 0.5191
430.90 0.5197
431.00 0.5203
431.10 0.5209
431.20 0.5216
431.30 0.5222
431.40 0.5228
431.50 0.5235
431.60 0.5241
431.70 0.5247
431.80 0.5254
431.90 0.526
432.00 0.5266
432.10 0.5273
432.20 0.5279
432.30 0.5285
432.40 0.5292
432.50 0.5298
432.60 0.5304
432.70 0.5311
432.80 0.5317
432.90 0.5323
433.00 0.533
433.10 0.5336
433.20 0.5342
433.30 0.5349
433.40 0.5355
433.50 0.5362
433.60 0.5368
433.70 0.5374
433.80 0.5381
433.90 0.5387
434.00 0.5394
434.10 0.54
434.20 0.5406
434.30 0.5413
434.40 0.5419
434.50 0.5425
434.60 0.5432
434.70 0.5438
434.80 0.5445
434.90 0.5451
435.00 0.5457
435.10 0.5464
435.20 0.547
435.30 0.5477
435.40 0.5483
435.50 0.549
435.60 0.5496
435.70 0.5502
435.80 0.5509
435.90 0.5515
436.00 0.5522
436.10 0.5528
436.20 0.5535
436.30 0.5541
436.40 0.5547
436.50 0.5554
436.60 0.556
436.70 0.5567
436.80 0.5573
436.90 0.558
437.00 0.5586
437.10 0.5593
437.20 0.5599
437.30 0.5606
437.40 0.5612
437.50 0.5619
437.60 0.5625
437.70 0.5631
437.80 0.5638
437.90 0.5644
438.00 0.5651
438.10 0.5657
438.20 0.5664
438.30 0.567
438.40 0.5677
438.50 0.5683
438.60 0.569
438.70 0.5696
438.80 0.5703
438.90 0.5709
439.00 0.5716
439.10 0.5722
439.20 0.5729
439.30 0.5736
439.40 0.5742
439.50 0.5749
439.60 0.5755
439.70 0.5762
439.80 0.5768
439.90 0.5775
440.00 0.5781
440.10 0.5788
440.20 0.5794
