# Version 2.1 - nm, norm@500 to 1, cut digits, bergeron_11500_65.dat_11500
# Wavelength(nm)  Flambda(ergs/cm^s/s/nm)
300.00 1.369
300.10 1.369
300.20 1.368
300.30 1.367
300.40 1.366
300.50 1.366
300.60 1.365
300.70 1.364
300.80 1.363
300.90 1.362
301.00 1.362
301.10 1.361
301.20 1.36
301.30 1.359
301.40 1.359
301.50 1.358
301.60 1.357
301.70 1.356
301.80 1.356
301.90 1.355
302.00 1.354
302.10 1.353
302.20 1.353
302.30 1.352
302.40 1.351
302.50 1.35
302.60 1.35
302.70 1.349
302.80 1.348
302.90 1.348
303.00 1.347
303.10 1.346
303.20 1.345
303.30 1.345
303.40 1.344
303.50 1.343
303.60 1.342
303.70 1.342
303.80 1.341
303.90 1.34
304.00 1.339
304.10 1.339
304.20 1.338
304.30 1.337
304.40 1.336
304.50 1.336
304.60 1.335
304.70 1.334
304.80 1.333
304.90 1.333
305.00 1.332
305.10 1.331
305.20 1.331
305.30 1.33
305.40 1.329
305.50 1.328
305.60 1.328
305.70 1.327
305.80 1.326
305.90 1.325
306.00 1.325
306.10 1.324
306.20 1.323
306.30 1.323
306.40 1.322
306.50 1.321
306.60 1.32
306.70 1.32
306.80 1.319
306.90 1.318
307.00 1.318
307.10 1.317
307.20 1.316
307.30 1.315
307.40 1.315
307.50 1.314
307.60 1.313
307.70 1.313
307.80 1.312
307.90 1.311
308.00 1.31
308.10 1.31
308.20 1.309
308.30 1.308
308.40 1.308
308.50 1.307
308.60 1.306
308.70 1.305
308.80 1.305
308.90 1.304
309.00 1.303
309.10 1.303
309.20 1.302
309.30 1.301
309.40 1.3
309.50 1.3
309.60 1.299
309.70 1.298
309.80 1.298
309.90 1.297
310.00 1.296
310.10 1.296
310.20 1.295
310.30 1.294
310.40 1.293
310.50 1.293
310.60 1.292
310.70 1.291
310.80 1.291
310.90 1.29
311.00 1.289
311.10 1.289
311.20 1.288
311.30 1.287
311.40 1.286
311.50 1.286
311.60 1.285
311.70 1.284
311.80 1.284
311.90 1.283
312.00 1.282
312.10 1.282
312.20 1.281
312.30 1.28
312.40 1.28
312.50 1.279
312.60 1.278
312.70 1.277
312.80 1.277
312.90 1.276
313.00 1.275
313.10 1.275
313.20 1.274
313.30 1.273
313.40 1.273
313.50 1.272
313.60 1.271
313.70 1.271
313.80 1.27
313.90 1.269
314.00 1.269
314.10 1.268
314.20 1.267
314.30 1.267
314.40 1.266
314.50 1.265
314.60 1.264
314.70 1.264
314.80 1.263
314.90 1.262
315.00 1.262
315.10 1.261
315.20 1.26
315.30 1.26
315.40 1.259
315.50 1.258
315.60 1.258
315.70 1.257
315.80 1.256
315.90 1.256
316.00 1.255
316.10 1.254
316.20 1.254
316.30 1.253
316.40 1.252
316.50 1.252
316.60 1.251
316.70 1.25
316.80 1.25
316.90 1.249
317.00 1.248
317.10 1.248
317.20 1.247
317.30 1.246
317.40 1.246
317.50 1.245
317.60 1.244
317.70 1.244
317.80 1.243
317.90 1.242
318.00 1.242
318.10 1.241
318.20 1.24
318.30 1.24
318.40 1.239
318.50 1.238
318.60 1.238
318.70 1.237
318.80 1.236
318.90 1.236
319.00 1.235
319.10 1.234
319.20 1.234
319.30 1.233
319.40 1.233
319.50 1.232
319.60 1.231
319.70 1.231
319.80 1.23
319.90 1.229
320.00 1.229
320.10 1.228
320.20 1.227
320.30 1.227
320.40 1.226
320.50 1.225
320.60 1.225
320.70 1.224
320.80 1.223
320.90 1.223
321.00 1.222
321.10 1.221
321.20 1.221
321.30 1.22
321.40 1.22
321.50 1.219
321.60 1.218
321.70 1.218
321.80 1.217
321.90 1.216
322.00 1.216
322.10 1.215
322.20 1.214
322.30 1.214
322.40 1.213
322.50 1.212
322.60 1.212
322.70 1.211
322.80 1.211
322.90 1.21
323.00 1.209
323.10 1.209
323.20 1.208
323.30 1.207
323.40 1.207
323.50 1.206
323.60 1.206
323.70 1.205
323.80 1.204
323.90 1.204
324.00 1.203
324.10 1.202
324.20 1.202
324.30 1.201
324.40 1.2
324.50 1.2
324.60 1.199
324.70 1.199
324.80 1.198
324.90 1.197
325.00 1.197
325.10 1.196
325.20 1.195
325.30 1.195
325.40 1.194
325.50 1.194
325.60 1.193
325.70 1.192
325.80 1.192
325.90 1.191
326.00 1.19
326.10 1.19
326.20 1.189
326.30 1.189
326.40 1.188
326.50 1.187
326.60 1.187
326.70 1.186
326.80 1.185
326.90 1.185
327.00 1.184
327.10 1.184
327.20 1.183
327.30 1.182
327.40 1.182
327.50 1.181
327.60 1.181
327.70 1.18
327.80 1.179
327.90 1.179
328.00 1.178
328.10 1.177
328.20 1.177
328.30 1.176
328.40 1.176
328.50 1.175
328.60 1.174
328.70 1.174
328.80 1.173
328.90 1.173
329.00 1.172
329.10 1.171
329.20 1.171
329.30 1.17
329.40 1.17
329.50 1.169
329.60 1.168
329.70 1.168
329.80 1.167
329.90 1.167
330.00 1.166
330.10 1.165
330.20 1.165
330.30 1.164
330.40 1.163
330.50 1.163
330.60 1.162
330.70 1.162
330.80 1.161
330.90 1.16
331.00 1.16
331.10 1.159
331.20 1.159
331.30 1.158
331.40 1.157
331.50 1.157
331.60 1.156
331.70 1.156
331.80 1.155
331.90 1.154
332.00 1.154
332.10 1.153
332.20 1.153
332.30 1.152
332.40 1.152
332.50 1.151
332.60 1.15
332.70 1.15
332.80 1.149
332.90 1.149
333.00 1.148
333.10 1.147
333.20 1.147
333.30 1.146
333.40 1.146
333.50 1.145
333.60 1.144
333.70 1.144
333.80 1.143
333.90 1.143
334.00 1.142
334.10 1.141
334.20 1.141
334.30 1.14
334.40 1.14
334.50 1.139
334.60 1.139
334.70 1.138
334.80 1.137
334.90 1.137
335.00 1.136
335.10 1.136
335.20 1.135
335.30 1.134
335.40 1.134
335.50 1.133
335.60 1.133
335.70 1.132
335.80 1.132
335.90 1.131
336.00 1.13
336.10 1.13
336.20 1.129
336.30 1.129
336.40 1.128
336.50 1.127
336.60 1.127
336.70 1.126
336.80 1.126
336.90 1.125
337.00 1.125
337.10 1.124
337.20 1.123
337.30 1.123
337.40 1.122
337.50 1.122
337.60 1.121
337.70 1.121
337.80 1.12
337.90 1.119
338.00 1.119
338.10 1.118
338.20 1.118
338.30 1.117
338.40 1.117
338.50 1.116
338.60 1.115
338.70 1.115
338.80 1.114
338.90 1.114
339.00 1.113
339.10 1.113
339.20 1.112
339.30 1.111
339.40 1.111
339.50 1.11
339.60 1.11
339.70 1.109
339.80 1.109
339.90 1.108
340.00 1.108
340.10 1.107
340.20 1.106
340.30 1.106
340.40 1.105
340.50 1.105
340.60 1.104
340.70 1.104
340.80 1.103
340.90 1.102
341.00 1.102
341.10 1.101
341.20 1.101
341.30 1.1
341.40 1.1
341.50 1.099
341.60 1.099
341.70 1.098
341.80 1.097
341.90 1.097
342.00 1.096
342.10 1.096
342.20 1.095
342.30 1.095
342.40 1.094
342.50 1.094
342.60 1.093
342.70 1.092
342.80 1.092
342.90 1.091
343.00 1.091
343.10 1.09
343.20 1.09
343.30 1.089
343.40 1.089
343.50 1.088
343.60 1.087
343.70 1.087
343.80 1.086
343.90 1.086
344.00 1.085
344.10 1.085
344.20 1.084
344.30 1.084
344.40 1.083
344.50 1.083
344.60 1.082
344.70 1.081
344.80 1.081
344.90 1.08
345.00 1.08
345.10 1.079
345.20 1.079
345.30 1.078
345.40 1.078
345.50 1.077
345.60 1.077
345.70 1.076
345.80 1.075
345.90 1.075
346.00 1.074
346.10 1.074
346.20 1.073
346.30 1.073
346.40 1.072
346.50 1.072
346.60 1.071
346.70 1.071
346.80 1.07
346.90 1.07
347.00 1.069
347.10 1.068
347.20 1.068
347.30 1.067
347.40 1.067
347.50 1.066
347.60 1.066
347.70 1.065
347.80 1.065
347.90 1.064
348.00 1.064
348.10 1.063
348.20 1.063
348.30 1.062
348.40 1.061
348.50 1.061
348.60 1.06
348.70 1.06
348.80 1.059
348.90 1.059
349.00 1.058
349.10 1.058
349.20 1.057
349.30 1.057
349.40 1.056
349.50 1.056
349.60 1.055
349.70 1.055
349.80 1.054
349.90 1.054
350.00 1.053
350.10 1.052
350.20 1.052
350.30 1.051
350.40 1.051
350.50 1.05
350.60 1.05
350.70 1.049
350.80 1.049
350.90 1.048
351.00 1.048
351.10 1.047
351.20 1.047
351.30 1.046
351.40 1.046
351.50 1.045
351.60 1.045
351.70 1.044
351.80 1.044
351.90 1.043
352.00 1.043
352.10 1.042
352.20 1.042
352.30 1.041
352.40 1.04
352.50 1.04
352.60 1.039
352.70 1.039
352.80 1.038
352.90 1.038
353.00 1.037
353.10 1.037
353.20 1.036
353.30 1.036
353.40 1.035
353.50 1.035
353.60 1.034
353.70 1.034
353.80 1.033
353.90 1.033
354.00 1.032
354.10 1.032
354.20 1.031
354.30 1.031
354.40 1.03
354.50 1.03
354.60 1.029
354.70 1.029
354.80 1.028
354.90 1.028
355.00 1.027
355.10 1.027
355.20 1.026
355.30 1.026
355.40 1.025
355.50 1.025
355.60 1.024
355.70 1.024
355.80 1.023
355.90 1.022
356.00 1.022
356.10 1.021
356.20 1.021
356.30 1.02
356.40 1.02
356.50 1.019
356.60 1.019
356.70 1.018
356.80 1.018
356.90 1.017
357.00 1.017
357.10 1.016
357.20 1.016
357.30 1.015
357.40 1.015
357.50 1.014
357.60 1.014
357.70 1.013
357.80 1.013
357.90 1.012
358.00 1.012
358.10 1.011
358.20 1.011
358.30 1.01
358.40 1.01
358.50 1.009
358.60 1.009
358.70 1.008
358.80 1.008
358.90 1.007
359.00 1.007
359.10 1.006
359.20 1.006
359.30 1.005
359.40 1.005
359.50 1.004
359.60 1.004
359.70 1.003
359.80 1.003
359.90 1.002
360.00 1.002
360.10 1.001
360.20 1.001
360.30 1
360.40 1
360.50 0.9995
360.60 0.999
360.70 0.9985
360.80 0.998
360.90 0.9975
361.00 0.997
361.10 0.9966
361.20 0.9961
361.30 0.9956
361.40 0.9951
361.50 0.9946
361.60 0.9941
361.70 0.9936
361.80 0.9931
361.90 0.9927
362.00 0.9922
362.10 0.9917
362.20 0.9912
362.30 0.9907
362.40 0.9902
362.50 0.9897
362.60 0.9892
362.70 0.9887
362.80 0.9883
362.90 0.9878
363.00 0.9873
363.10 0.9868
363.20 0.9863
363.30 0.9858
363.40 0.9853
363.50 0.9848
363.60 0.9843
363.70 0.9838
363.80 0.9833
363.90 0.9828
364.00 0.9823
364.10 0.9818
364.20 0.9813
364.30 0.9808
364.40 0.9803
364.50 0.9798
364.60 0.9794
364.70 0.979
364.80 0.9786
364.90 0.9782
365.00 0.9778
365.10 0.9774
365.20 0.977
365.30 0.9767
365.40 0.9763
365.50 0.9759
365.60 0.9755
365.70 0.9751
365.80 0.9747
365.90 0.9743
366.00 0.9739
366.10 0.9736
366.20 0.9733
366.30 0.973
366.40 0.9726
366.50 0.9723
366.60 0.972
366.70 0.9717
366.80 0.9713
366.90 0.971
367.00 0.9707
367.10 0.9704
367.20 0.9701
367.30 0.9697
367.40 0.9694
367.50 0.9691
367.60 0.9688
367.70 0.9685
367.80 0.9681
367.90 0.9678
368.00 0.9675
368.10 0.9688
368.20 0.9701
368.30 0.9714
368.40 0.9727
368.50 0.974
368.60 0.9753
368.70 0.9765
368.80 0.9778
368.90 0.9791
369.00 0.9804
369.10 0.9817
369.20 0.9829
369.30 0.9842
369.40 0.9855
369.50 0.9868
369.60 0.988
369.70 0.9893
369.80 0.9906
369.90 0.9918
370.00 0.9931
370.10 0.9968
370.20 1
370.30 1.004
370.40 1.008
370.50 1.011
370.60 1.015
370.70 1.019
370.80 1.022
370.90 1.026
371.00 1.03
371.10 1.033
371.20 1.037
371.30 1.04
371.40 1.044
371.50 1.048
371.60 1.051
371.70 1.055
371.80 1.058
371.90 1.062
372.00 1.066
372.10 1.071
372.20 1.076
372.30 1.081
372.40 1.086
372.50 1.091
372.60 1.096
372.70 1.102
372.80 1.107
372.90 1.112
373.00 1.117
373.10 1.122
373.20 1.127
373.30 1.132
373.40 1.137
373.50 1.142
373.60 1.147
373.70 1.152
373.80 1.158
373.90 1.163
374.00 1.168
374.10 1.173
374.20 1.178
374.30 1.183
374.40 1.187
374.50 1.192
374.60 1.197
374.70 1.202
374.80 1.207
374.90 1.212
375.00 1.217
375.10 1.222
375.20 1.227
375.30 1.232
375.40 1.237
375.50 1.242
375.60 1.246
375.70 1.251
375.80 1.256
375.90 1.261
376.00 1.266
376.10 1.268
376.20 1.271
376.30 1.273
376.40 1.275
376.50 1.277
376.60 1.28
376.70 1.282
376.80 1.284
376.90 1.287
377.00 1.289
377.10 1.284
377.20 1.28
377.30 1.275
377.40 1.271
377.50 1.266
377.60 1.262
377.70 1.258
377.80 1.253
377.90 1.249
378.00 1.244
378.10 1.22
378.20 1.196
378.30 1.172
378.40 1.147
378.50 1.123
378.60 1.099
378.70 1.075
378.80 1.051
378.90 1.027
379.00 1.003
379.10 0.9804
379.20 0.9577
379.30 0.935
379.40 0.9123
379.50 0.8897
379.60 0.8671
379.70 0.8445
379.80 0.8219
379.90 0.7994
380.00 0.7769
380.10 0.8116
380.20 0.8463
380.30 0.881
380.40 0.9156
380.50 0.9502
380.60 0.9848
380.70 1.019
380.80 1.054
380.90 1.088
381.00 1.123
381.10 1.136
381.20 1.15
381.30 1.164
381.40 1.178
381.50 1.191
381.60 1.193
381.70 1.192
381.80 1.187
381.90 1.178
382.00 1.165
382.10 1.148
382.20 1.126
382.30 1.089
382.40 1.052
382.50 1.014
382.60 0.9772
382.70 0.94
382.80 0.9028
382.90 0.8656
383.00 0.8285
383.10 0.7915
383.20 0.7545
383.30 0.7094
383.40 0.6616
383.50 0.6067
383.60 0.6201
383.70 0.6718
383.80 0.7189
383.90 0.7634
384.00 0.8065
384.10 0.8495
384.20 0.8918
384.30 0.9336
384.40 0.9753
384.50 1.017
384.60 1.056
384.70 1.093
384.80 1.127
384.90 1.158
385.00 1.186
385.10 1.21
385.20 1.232
385.30 1.252
385.40 1.268
385.50 1.282
385.60 1.295
385.70 1.304
385.80 1.312
385.90 1.318
386.00 1.321
386.10 1.323
386.20 1.323
386.30 1.32
386.40 1.316
386.50 1.31
386.60 1.301
386.70 1.291
386.80 1.28
386.90 1.265
387.00 1.249
387.10 1.231
387.20 1.21
387.30 1.187
387.40 1.162
387.50 1.133
387.60 1.102
387.70 1.068
387.80 1.031
387.90 0.9916
388.00 0.9504
388.10 0.9074
388.20 0.8643
388.30 0.8209
388.40 0.7776
388.50 0.7338
388.60 0.6898
388.70 0.6424
388.80 0.5863
388.90 0.5217
389.00 0.5827
389.10 0.6369
389.20 0.6844
389.30 0.7282
389.40 0.7715
389.50 0.8144
389.60 0.8574
389.70 0.9004
389.80 0.9433
389.90 0.985
390.00 1.025
390.10 1.064
390.20 1.099
390.30 1.132
390.40 1.163
390.50 1.192
390.60 1.219
390.70 1.244
390.80 1.267
390.90 1.289
391.00 1.31
391.10 1.328
391.20 1.346
391.30 1.363
391.40 1.379
391.50 1.393
391.60 1.407
391.70 1.419
391.80 1.43
391.90 1.441
392.00 1.45
392.10 1.458
392.20 1.466
392.30 1.472
392.40 1.477
392.50 1.481
392.60 1.484
392.70 1.486
392.80 1.488
392.90 1.488
393.00 1.487
393.10 1.485
393.20 1.481
393.30 1.477
393.40 1.472
393.50 1.466
393.60 1.458
393.70 1.45
393.80 1.44
393.90 1.429
394.00 1.418
394.10 1.405
394.20 1.391
394.30 1.377
394.40 1.36
394.50 1.343
394.60 1.326
394.70 1.306
394.80 1.286
394.90 1.265
395.00 1.243
395.10 1.219
395.20 1.195
395.30 1.169
395.40 1.141
395.50 1.113
395.60 1.082
395.70 1.049
395.80 1.016
395.90 0.9799
396.00 0.9426
396.10 0.9042
396.20 0.864
396.30 0.8233
396.40 0.7821
396.50 0.7407
396.60 0.6992
396.70 0.6576
396.80 0.6113
396.90 0.547
397.00 0.4648
397.10 0.5419
397.20 0.6039
397.30 0.6507
397.40 0.6921
397.50 0.7331
397.60 0.7738
397.70 0.8144
397.80 0.8545
397.90 0.8941
398.00 0.9319
398.10 0.9686
398.20 1.004
398.30 1.037
398.40 1.069
398.50 1.1
398.60 1.128
398.70 1.155
398.80 1.181
398.90 1.206
399.00 1.229
399.10 1.252
399.20 1.274
399.30 1.295
399.40 1.315
399.50 1.334
399.60 1.353
399.70 1.371
399.80 1.388
399.90 1.404
400.00 1.42
400.10 1.435
400.20 1.45
400.30 1.463
400.40 1.476
400.50 1.489
400.60 1.501
400.70 1.512
400.80 1.523
400.90 1.533
401.00 1.542
401.10 1.551
401.20 1.56
401.30 1.568
401.40 1.575
401.50 1.583
401.60 1.589
401.70 1.595
401.80 1.601
401.90 1.606
402.00 1.61
402.10 1.615
402.20 1.619
402.30 1.622
402.40 1.625
402.50 1.628
402.60 1.631
402.70 1.633
402.80 1.634
402.90 1.636
403.00 1.637
403.10 1.637
403.20 1.638
403.30 1.638
403.40 1.637
403.50 1.637
403.60 1.636
403.70 1.634
403.80 1.633
403.90 1.631
404.00 1.629
404.10 1.626
404.20 1.623
404.30 1.62
404.40 1.616
404.50 1.612
404.60 1.608
404.70 1.603
404.80 1.599
404.90 1.593
405.00 1.587
405.10 1.581
405.20 1.575
405.30 1.568
405.40 1.561
405.50 1.553
405.60 1.544
405.70 1.536
405.80 1.527
405.90 1.517
406.00 1.507
406.10 1.496
406.20 1.485
406.30 1.474
406.40 1.462
406.50 1.449
406.60 1.436
406.70 1.422
406.80 1.408
406.90 1.393
407.00 1.378
407.10 1.361
407.20 1.345
407.30 1.327
407.40 1.309
407.50 1.29
407.60 1.27
407.70 1.25
407.80 1.229
407.90 1.208
408.00 1.185
408.10 1.163
408.20 1.139
408.30 1.115
408.40 1.091
408.50 1.065
408.60 1.039
408.70 1.012
408.80 0.9843
408.90 0.9555
409.00 0.9259
409.10 0.8946
409.20 0.8624
409.30 0.8293
409.40 0.7945
409.50 0.759
409.60 0.7228
409.70 0.686
409.80 0.6488
409.90 0.6112
410.00 0.565
410.10 0.5079
410.20 0.4399
410.30 0.526
410.40 0.5897
410.50 0.631
410.60 0.6675
410.70 0.7038
410.80 0.7398
410.90 0.7749
411.00 0.8091
411.10 0.8424
411.20 0.8739
411.30 0.9045
411.40 0.9342
411.50 0.9622
411.60 0.9893
411.70 1.016
411.80 1.041
411.90 1.065
412.00 1.089
412.10 1.112
412.20 1.134
412.30 1.156
412.40 1.177
412.50 1.197
412.60 1.217
412.70 1.236
412.80 1.255
412.90 1.273
413.00 1.29
413.10 1.306
413.20 1.322
413.30 1.337
413.40 1.352
413.50 1.366
413.60 1.379
413.70 1.392
413.80 1.404
413.90 1.415
414.00 1.427
414.10 1.437
414.20 1.448
414.30 1.457
414.40 1.467
414.50 1.476
414.60 1.485
414.70 1.493
414.80 1.501
414.90 1.508
415.00 1.515
415.10 1.522
415.20 1.528
415.30 1.535
415.40 1.54
415.50 1.546
415.60 1.551
415.70 1.556
415.80 1.561
415.90 1.566
416.00 1.57
416.10 1.574
416.20 1.578
416.30 1.581
416.40 1.585
416.50 1.588
416.60 1.591
416.70 1.594
416.80 1.597
416.90 1.599
417.00 1.602
417.10 1.604
417.20 1.606
417.30 1.608
417.40 1.61
417.50 1.612
417.60 1.614
417.70 1.615
417.80 1.616
417.90 1.618
418.00 1.619
418.10 1.62
418.20 1.621
418.30 1.622
418.40 1.623
418.50 1.624
418.60 1.624
418.70 1.625
418.80 1.626
418.90 1.626
419.00 1.626
419.10 1.627
419.20 1.627
419.30 1.627
419.40 1.627
419.50 1.627
419.60 1.627
419.70 1.627
419.80 1.627
419.90 1.627
420.00 1.627
420.10 1.627
420.20 1.626
420.30 1.626
420.40 1.626
420.50 1.625
420.60 1.625
420.70 1.624
420.80 1.624
420.90 1.623
421.00 1.623
421.10 1.622
421.20 1.621
421.30 1.62
421.40 1.62
421.50 1.619
421.60 1.618
421.70 1.617
421.80 1.616
421.90 1.615
422.00 1.614
422.10 1.613
422.20 1.612
422.30 1.611
422.40 1.61
422.50 1.609
422.60 1.607
422.70 1.606
422.80 1.605
422.90 1.603
423.00 1.602
423.10 1.601
423.20 1.599
423.30 1.598
423.40 1.596
423.50 1.594
423.60 1.593
423.70 1.591
423.80 1.589
423.90 1.588
424.00 1.586
424.10 1.584
424.20 1.582
424.30 1.58
424.40 1.578
424.50 1.576
424.60 1.574
424.70 1.572
424.80 1.569
424.90 1.567
425.00 1.565
425.10 1.562
425.20 1.56
425.30 1.557
425.40 1.555
425.50 1.552
425.60 1.549
425.70 1.547
425.80 1.544
425.90 1.541
426.00 1.538
426.10 1.534
426.20 1.531
426.30 1.527
426.40 1.524
426.50 1.52
426.60 1.516
426.70 1.513
426.80 1.509
426.90 1.505
427.00 1.501
427.10 1.496
427.20 1.492
427.30 1.488
427.40 1.483
427.50 1.478
427.60 1.474
427.70 1.468
427.80 1.463
427.90 1.458
428.00 1.452
428.10 1.447
428.20 1.441
428.30 1.435
428.40 1.429
428.50 1.422
428.60 1.416
428.70 1.409
428.80 1.402
428.90 1.395
429.00 1.387
429.10 1.379
429.20 1.371
429.30 1.363
429.40 1.355
429.50 1.346
429.60 1.337
429.70 1.327
429.80 1.318
429.90 1.308
430.00 1.298
430.10 1.287
430.20 1.276
430.30 1.265
430.40 1.254
430.50 1.242
430.60 1.23
430.70 1.218
430.80 1.205
430.90 1.192
431.00 1.179
431.10 1.165
431.20 1.152
431.30 1.138
431.40 1.123
431.50 1.108
431.60 1.093
431.70 1.076
431.80 1.06
431.90 1.042
432.00 1.023
432.10 1.004
432.20 0.9833
432.30 0.9617
432.40 0.9391
432.50 0.9147
432.60 0.8895
432.70 0.8635
432.80 0.837
432.90 0.8109
433.00 0.785
433.10 0.7598
433.20 0.7341
433.30 0.7078
433.40 0.6792
433.50 0.6497
433.60 0.6194
433.70 0.5885
433.80 0.5541
433.90 0.5162
434.00 0.4113
434.10 0.4125
434.20 0.5194
434.30 0.5563
434.40 0.5899
434.50 0.6202
434.60 0.6499
434.70 0.6787
434.80 0.7066
434.90 0.732
435.00 0.7569
435.10 0.7812
435.20 0.8062
435.30 0.8314
435.40 0.8568
435.50 0.8816
435.60 0.9056
435.70 0.9287
435.80 0.9498
435.90 0.97
436.00 0.9893
436.10 1.007
436.20 1.024
436.30 1.04
436.40 1.056
436.50 1.07
436.60 1.084
436.70 1.097
436.80 1.11
436.90 1.123
437.00 1.134
437.10 1.146
437.20 1.158
437.30 1.169
437.40 1.179
437.50 1.19
437.60 1.2
437.70 1.21
437.80 1.219
437.90 1.228
438.00 1.237
438.10 1.246
438.20 1.254
438.30 1.262
438.40 1.269
438.50 1.276
438.60 1.283
438.70 1.29
438.80 1.296
438.90 1.302
439.00 1.308
439.10 1.314
439.20 1.319
439.30 1.324
439.40 1.329
439.50 1.334
439.60 1.338
439.70 1.342
439.80 1.347
439.90 1.35
440.00 1.354
440.10 1.358
440.20 1.361
440.30 1.364
440.40 1.367
440.50 1.37
440.60 1.373
440.70 1.375
440.80 1.378
440.90 1.38
441.00 1.382
441.10 1.384
441.20 1.386
441.30 1.388
441.40 1.39
441.50 1.392
441.60 1.393
441.70 1.395
441.80 1.396
441.90 1.397
442.00 1.398
442.10 1.4
442.20 1.401
442.30 1.402
442.40 1.402
442.50 1.403
442.60 1.404
442.70 1.405
442.80 1.405
442.90 1.406
443.00 1.407
443.10 1.407
443.20 1.407
443.30 1.408
443.40 1.408
443.50 1.408
443.60 1.409
443.70 1.409
443.80 1.409
443.90 1.409
444.00 1.409
444.10 1.409
444.20 1.409
444.30 1.409
444.40 1.409
444.50 1.409
444.60 1.409
444.70 1.409
444.80 1.409
444.90 1.409
445.00 1.409
445.10 1.408
445.20 1.408
445.30 1.408
445.40 1.408
445.50 1.407
445.60 1.407
445.70 1.407
445.80 1.406
445.90 1.406
446.00 1.405
446.10 1.405
446.20 1.405
446.30 1.404
446.40 1.404
446.50 1.403
446.60 1.403
446.70 1.402
446.80 1.402
446.90 1.401
447.00 1.401
447.10 1.4
447.20 1.4
447.30 1.399
447.40 1.398
447.50 1.398
447.60 1.397
447.70 1.397
447.80 1.396
447.90 1.395
448.00 1.395
448.10 1.394
448.20 1.393
448.30 1.393
448.40 1.392
448.50 1.391
448.60 1.391
448.70 1.39
448.80 1.389
448.90 1.389
449.00 1.388
449.10 1.388
449.20 1.387
449.30 1.386
449.40 1.386
449.50 1.385
449.60 1.384
449.70 1.383
449.80 1.383
449.90 1.382
450.00 1.381
450.10 1.38
450.20 1.38
450.30 1.379
450.40 1.378
450.50 1.377
450.60 1.377
450.70 1.376
450.80 1.375
450.90 1.374
451.00 1.374
451.10 1.373
451.20 1.372
451.30 1.371
451.40 1.371
451.50 1.37
451.60 1.369
451.70 1.368
451.80 1.368
451.90 1.367
452.00 1.366
452.10 1.365
452.20 1.364
