# Version 2.1 - nm, norm@500 to 1, cut digits, bergeron_45000_70.dat_45000
# Wavelength(nm)  Flambda(ergs/cm^s/s/nm)
300.00 6.025
300.10 6.017
300.20 6.01
300.30 6.003
300.40 5.996
300.50 5.989
300.60 5.982
300.70 5.975
300.80 5.967
300.90 5.96
301.00 5.953
301.10 5.946
301.20 5.939
301.30 5.932
301.40 5.925
301.50 5.918
301.60 5.911
301.70 5.904
301.80 5.897
301.90 5.89
302.00 5.883
302.10 5.876
302.20 5.869
302.30 5.862
302.40 5.855
302.50 5.848
302.60 5.841
302.70 5.834
302.80 5.827
302.90 5.82
303.00 5.813
303.10 5.807
303.20 5.8
303.30 5.793
303.40 5.786
303.50 5.779
303.60 5.772
303.70 5.765
303.80 5.759
303.90 5.752
304.00 5.745
304.10 5.738
304.20 5.732
304.30 5.725
304.40 5.718
304.50 5.711
304.60 5.705
304.70 5.698
304.80 5.691
304.90 5.684
305.00 5.678
305.10 5.671
305.20 5.664
305.30 5.658
305.40 5.651
305.50 5.644
305.60 5.638
305.70 5.631
305.80 5.625
305.90 5.618
306.00 5.611
306.10 5.605
306.20 5.598
306.30 5.592
306.40 5.585
306.50 5.579
306.60 5.572
306.70 5.566
306.80 5.559
306.90 5.553
307.00 5.546
307.10 5.54
307.20 5.533
307.30 5.527
307.40 5.52
307.50 5.514
307.60 5.507
307.70 5.501
307.80 5.494
307.90 5.488
308.00 5.482
308.10 5.475
308.20 5.469
308.30 5.463
308.40 5.456
308.50 5.45
308.60 5.443
308.70 5.437
308.80 5.431
308.90 5.424
309.00 5.418
309.10 5.412
309.20 5.406
309.30 5.399
309.40 5.393
309.50 5.387
309.60 5.381
309.70 5.374
309.80 5.368
309.90 5.362
310.00 5.356
310.10 5.349
310.20 5.343
310.30 5.337
310.40 5.331
310.50 5.325
310.60 5.319
310.70 5.312
310.80 5.306
310.90 5.3
311.00 5.294
311.10 5.288
311.20 5.282
311.30 5.276
311.40 5.27
311.50 5.263
311.60 5.257
311.70 5.251
311.80 5.245
311.90 5.239
312.00 5.233
312.10 5.227
312.20 5.221
312.30 5.215
312.40 5.209
312.50 5.203
312.60 5.197
312.70 5.191
312.80 5.185
312.90 5.179
313.00 5.173
313.10 5.167
313.20 5.161
313.30 5.155
313.40 5.15
313.50 5.144
313.60 5.138
313.70 5.132
313.80 5.126
313.90 5.12
314.00 5.114
314.10 5.108
314.20 5.103
314.30 5.097
314.40 5.091
314.50 5.085
314.60 5.079
314.70 5.073
314.80 5.068
314.90 5.062
315.00 5.056
315.10 5.05
315.20 5.044
315.30 5.039
315.40 5.033
315.50 5.027
315.60 5.022
315.70 5.016
315.80 5.01
315.90 5.004
316.00 4.999
316.10 4.993
316.20 4.987
316.30 4.982
316.40 4.976
316.50 4.97
316.60 4.965
316.70 4.959
316.80 4.953
316.90 4.948
317.00 4.942
317.10 4.937
317.20 4.931
317.30 4.925
317.40 4.92
317.50 4.914
317.60 4.909
317.70 4.903
317.80 4.897
317.90 4.892
318.00 4.886
318.10 4.881
318.20 4.875
318.30 4.87
318.40 4.864
318.50 4.859
318.60 4.853
318.70 4.848
318.80 4.842
318.90 4.837
319.00 4.831
319.10 4.826
319.20 4.821
319.30 4.815
319.40 4.81
319.50 4.804
319.60 4.799
319.70 4.793
319.80 4.788
319.90 4.783
320.00 4.777
320.10 4.772
320.20 4.766
320.30 4.761
320.40 4.756
320.50 4.75
320.60 4.745
320.70 4.74
320.80 4.734
320.90 4.729
321.00 4.724
321.10 4.718
321.20 4.713
321.30 4.708
321.40 4.703
321.50 4.697
321.60 4.692
321.70 4.687
321.80 4.682
321.90 4.676
322.00 4.671
322.10 4.666
322.20 4.661
322.30 4.655
322.40 4.65
322.50 4.645
322.60 4.64
322.70 4.635
322.80 4.629
322.90 4.624
323.00 4.619
323.10 4.614
323.20 4.609
323.30 4.604
323.40 4.599
323.50 4.593
323.60 4.588
323.70 4.583
323.80 4.578
323.90 4.573
324.00 4.568
324.10 4.563
324.20 4.558
324.30 4.553
324.40 4.548
324.50 4.543
324.60 4.538
324.70 4.532
324.80 4.527
324.90 4.522
325.00 4.517
325.10 4.512
325.20 4.507
325.30 4.502
325.40 4.497
325.50 4.492
325.60 4.487
325.70 4.482
325.80 4.478
325.90 4.473
326.00 4.468
326.10 4.463
326.20 4.458
326.30 4.453
326.40 4.448
326.50 4.443
326.60 4.438
326.70 4.433
326.80 4.428
326.90 4.423
327.00 4.418
327.10 4.414
327.20 4.409
327.30 4.404
327.40 4.399
327.50 4.394
327.60 4.389
327.70 4.384
327.80 4.38
327.90 4.375
328.00 4.37
328.10 4.365
328.20 4.36
328.30 4.356
328.40 4.351
328.50 4.346
328.60 4.341
328.70 4.337
328.80 4.332
328.90 4.327
329.00 4.322
329.10 4.317
329.20 4.313
329.30 4.308
329.40 4.303
329.50 4.299
329.60 4.294
329.70 4.289
329.80 4.284
329.90 4.28
330.00 4.275
330.10 4.27
330.20 4.266
330.30 4.261
330.40 4.256
330.50 4.252
330.60 4.247
330.70 4.243
330.80 4.238
330.90 4.233
331.00 4.229
331.10 4.224
331.20 4.219
331.30 4.215
331.40 4.21
331.50 4.206
331.60 4.201
331.70 4.196
331.80 4.192
331.90 4.187
332.00 4.183
332.10 4.178
332.20 4.174
332.30 4.169
332.40 4.165
332.50 4.16
332.60 4.156
332.70 4.151
332.80 4.147
332.90 4.142
333.00 4.138
333.10 4.133
333.20 4.129
333.30 4.124
333.40 4.12
333.50 4.115
333.60 4.111
333.70 4.106
333.80 4.102
333.90 4.097
334.00 4.093
334.10 4.088
334.20 4.084
334.30 4.08
334.40 4.075
334.50 4.071
334.60 4.066
334.70 4.062
334.80 4.058
334.90 4.053
335.00 4.049
335.10 4.045
335.20 4.04
335.30 4.036
335.40 4.031
335.50 4.027
335.60 4.023
335.70 4.018
335.80 4.014
335.90 4.01
336.00 4.005
336.10 4.001
336.20 3.997
336.30 3.993
336.40 3.988
336.50 3.984
336.60 3.98
336.70 3.975
336.80 3.971
336.90 3.967
337.00 3.963
337.10 3.958
337.20 3.954
337.30 3.95
337.40 3.946
337.50 3.941
337.60 3.937
337.70 3.933
337.80 3.929
337.90 3.924
338.00 3.92
338.10 3.916
338.20 3.912
338.30 3.908
338.40 3.904
338.50 3.899
338.60 3.895
338.70 3.891
338.80 3.887
338.90 3.883
339.00 3.879
339.10 3.875
339.20 3.87
339.30 3.866
339.40 3.862
339.50 3.858
339.60 3.854
339.70 3.85
339.80 3.846
339.90 3.842
340.00 3.837
340.10 3.833
340.20 3.829
340.30 3.825
340.40 3.821
340.50 3.817
340.60 3.813
340.70 3.809
340.80 3.805
340.90 3.801
341.00 3.797
341.10 3.793
341.20 3.789
341.30 3.785
341.40 3.781
341.50 3.777
341.60 3.773
341.70 3.769
341.80 3.765
341.90 3.761
342.00 3.757
342.10 3.753
342.20 3.749
342.30 3.745
342.40 3.741
342.50 3.737
342.60 3.733
342.70 3.729
342.80 3.725
342.90 3.721
343.00 3.717
343.10 3.713
343.20 3.709
343.30 3.706
343.40 3.702
343.50 3.698
343.60 3.694
343.70 3.69
343.80 3.686
343.90 3.682
344.00 3.678
344.10 3.674
344.20 3.67
344.30 3.667
344.40 3.663
344.50 3.659
344.60 3.655
344.70 3.651
344.80 3.647
344.90 3.644
345.00 3.64
345.10 3.636
345.20 3.632
345.30 3.628
345.40 3.624
345.50 3.621
345.60 3.617
345.70 3.613
345.80 3.609
345.90 3.605
346.00 3.602
346.10 3.598
346.20 3.594
346.30 3.59
346.40 3.587
346.50 3.583
346.60 3.579
346.70 3.575
346.80 3.572
346.90 3.568
347.00 3.564
347.10 3.56
347.20 3.557
347.30 3.553
347.40 3.549
347.50 3.546
347.60 3.542
347.70 3.538
347.80 3.535
347.90 3.531
348.00 3.527
348.10 3.523
348.20 3.52
348.30 3.516
348.40 3.512
348.50 3.509
348.60 3.505
348.70 3.502
348.80 3.498
348.90 3.494
349.00 3.491
349.10 3.487
349.20 3.483
349.30 3.48
349.40 3.476
349.50 3.473
349.60 3.469
349.70 3.465
349.80 3.462
349.90 3.458
350.00 3.455
350.10 3.451
350.20 3.447
350.30 3.444
350.40 3.44
350.50 3.437
350.60 3.433
350.70 3.43
350.80 3.426
350.90 3.423
351.00 3.419
351.10 3.415
351.20 3.412
351.30 3.408
351.40 3.405
351.50 3.401
351.60 3.398
351.70 3.394
351.80 3.391
351.90 3.387
352.00 3.384
352.10 3.38
352.20 3.377
352.30 3.373
352.40 3.37
352.50 3.366
352.60 3.363
352.70 3.36
352.80 3.356
352.90 3.353
353.00 3.349
353.10 3.346
353.20 3.342
353.30 3.339
353.40 3.335
353.50 3.332
353.60 3.329
353.70 3.325
353.80 3.322
353.90 3.318
354.00 3.315
354.10 3.311
354.20 3.308
354.30 3.305
354.40 3.301
354.50 3.298
354.60 3.295
354.70 3.291
354.80 3.288
354.90 3.284
355.00 3.281
355.10 3.278
355.20 3.274
355.30 3.271
355.40 3.268
355.50 3.264
355.60 3.261
355.70 3.258
355.80 3.254
355.90 3.251
356.00 3.248
356.10 3.244
356.20 3.241
356.30 3.238
356.40 3.234
356.50 3.231
356.60 3.228
356.70 3.225
356.80 3.221
356.90 3.218
357.00 3.215
357.10 3.212
357.20 3.208
357.30 3.205
357.40 3.202
357.50 3.198
357.60 3.195
357.70 3.192
357.80 3.189
357.90 3.185
358.00 3.182
358.10 3.179
358.20 3.176
358.30 3.173
358.40 3.169
358.50 3.166
358.60 3.163
358.70 3.16
358.80 3.157
358.90 3.153
359.00 3.15
359.10 3.147
359.20 3.144
359.30 3.141
359.40 3.137
359.50 3.134
359.60 3.131
359.70 3.128
359.80 3.125
359.90 3.122
360.00 3.118
360.10 3.115
360.20 3.112
360.30 3.109
360.40 3.106
360.50 3.103
360.60 3.1
360.70 3.096
360.80 3.093
360.90 3.09
361.00 3.087
361.10 3.084
361.20 3.081
361.30 3.078
361.40 3.075
361.50 3.072
361.60 3.068
361.70 3.065
361.80 3.062
361.90 3.059
362.00 3.056
362.10 3.053
362.20 3.05
362.30 3.047
362.40 3.044
362.50 3.041
362.60 3.038
362.70 3.035
362.80 3.032
362.90 3.029
363.00 3.026
363.10 3.023
363.20 3.02
363.30 3.017
363.40 3.014
363.50 3.01
363.60 3.007
363.70 3.004
363.80 3.001
363.90 2.998
364.00 2.995
364.10 2.992
364.20 2.989
364.30 2.986
364.40 2.983
364.50 2.981
364.60 2.978
364.70 2.975
364.80 2.972
364.90 2.969
365.00 2.966
365.10 2.963
365.20 2.96
365.30 2.957
365.40 2.954
365.50 2.951
365.60 2.948
365.70 2.945
365.80 2.942
365.90 2.939
366.00 2.936
366.10 2.933
366.20 2.93
366.30 2.927
366.40 2.924
366.50 2.921
366.60 2.918
366.70 2.915
366.80 2.912
366.90 2.909
367.00 2.906
367.10 2.903
367.20 2.9
367.30 2.897
367.40 2.893
367.50 2.89
367.60 2.887
367.70 2.884
367.80 2.881
367.90 2.878
368.00 2.875
368.10 2.872
368.20 2.869
368.30 2.866
368.40 2.863
368.50 2.86
368.60 2.858
368.70 2.855
368.80 2.852
368.90 2.849
369.00 2.846
369.10 2.843
369.20 2.84
369.30 2.837
369.40 2.834
369.50 2.831
369.60 2.828
369.70 2.825
369.80 2.822
369.90 2.819
370.00 2.816
370.10 2.813
370.20 2.811
370.30 2.808
370.40 2.805
370.50 2.802
370.60 2.799
370.70 2.796
370.80 2.793
370.90 2.79
371.00 2.788
371.10 2.785
371.20 2.782
371.30 2.779
371.40 2.776
371.50 2.773
371.60 2.771
371.70 2.768
371.80 2.765
371.90 2.762
372.00 2.759
372.10 2.757
372.20 2.754
372.30 2.751
372.40 2.749
372.50 2.746
372.60 2.743
372.70 2.741
372.80 2.738
372.90 2.735
373.00 2.733
373.10 2.73
373.20 2.728
373.30 2.725
373.40 2.722
373.50 2.72
373.60 2.717
373.70 2.715
373.80 2.712
373.90 2.709
374.00 2.707
374.10 2.704
374.20 2.702
374.30 2.699
374.40 2.697
374.50 2.695
374.60 2.692
374.70 2.69
374.80 2.687
374.90 2.685
375.00 2.683
375.10 2.68
375.20 2.678
375.30 2.676
375.40 2.673
375.50 2.671
375.60 2.668
375.70 2.666
375.80 2.664
375.90 2.661
376.00 2.659
376.10 2.656
376.20 2.654
376.30 2.651
376.40 2.648
376.50 2.646
376.60 2.643
376.70 2.64
376.80 2.638
376.90 2.635
377.00 2.632
377.10 2.631
377.20 2.629
377.30 2.627
377.40 2.626
377.50 2.624
377.60 2.623
377.70 2.621
377.80 2.619
377.90 2.618
378.00 2.616
378.10 2.613
378.20 2.61
378.30 2.608
378.40 2.605
378.50 2.602
378.60 2.599
378.70 2.597
378.80 2.594
378.90 2.591
379.00 2.588
379.10 2.585
379.20 2.583
379.30 2.58
379.40 2.577
379.50 2.574
379.60 2.571
379.70 2.568
379.80 2.565
379.90 2.562
380.00 2.559
380.10 2.559
380.20 2.559
380.30 2.559
380.40 2.558
380.50 2.558
380.60 2.558
380.70 2.558
380.80 2.557
380.90 2.557
381.00 2.557
381.10 2.555
381.20 2.553
381.30 2.551
381.40 2.549
381.50 2.547
381.60 2.545
381.70 2.541
381.80 2.538
381.90 2.534
382.00 2.53
382.10 2.526
382.20 2.521
382.30 2.514
382.40 2.508
382.50 2.501
382.60 2.495
382.70 2.489
382.80 2.482
382.90 2.476
383.00 2.469
383.10 2.463
383.20 2.457
383.30 2.45
383.40 2.443
383.50 2.438
383.60 2.437
383.70 2.439
383.80 2.443
383.90 2.447
384.00 2.451
384.10 2.455
384.20 2.459
384.30 2.462
384.40 2.466
384.50 2.469
384.60 2.472
384.70 2.474
384.80 2.477
384.90 2.479
385.00 2.48
385.10 2.481
385.20 2.482
385.30 2.483
385.40 2.483
385.50 2.483
385.60 2.482
385.70 2.481
385.80 2.48
385.90 2.478
386.00 2.476
386.10 2.473
386.20 2.471
386.30 2.467
386.40 2.463
386.50 2.459
386.60 2.455
386.70 2.45
386.80 2.444
386.90 2.438
387.00 2.432
387.10 2.425
387.20 2.417
387.30 2.409
387.40 2.401
387.50 2.391
387.60 2.382
387.70 2.372
387.80 2.361
387.90 2.35
388.00 2.338
388.10 2.326
388.20 2.313
388.30 2.3
388.40 2.287
388.50 2.274
388.60 2.261
388.70 2.249
388.80 2.241
388.90 2.235
389.00 2.237
389.10 2.241
389.20 2.249
389.30 2.259
389.40 2.269
389.50 2.278
389.60 2.288
389.70 2.297
389.80 2.306
389.90 2.314
390.00 2.322
390.10 2.33
390.20 2.337
390.30 2.343
390.40 2.349
390.50 2.355
390.60 2.36
390.70 2.364
390.80 2.368
390.90 2.372
391.00 2.376
391.10 2.379
391.20 2.381
391.30 2.383
391.40 2.385
391.50 2.387
391.60 2.388
391.70 2.389
391.80 2.39
391.90 2.39
392.00 2.39
392.10 2.39
392.20 2.39
392.30 2.389
392.40 2.388
392.50 2.387
392.60 2.385
392.70 2.383
392.80 2.382
392.90 2.379
393.00 2.377
393.10 2.374
393.20 2.371
393.30 2.368
393.40 2.365
393.50 2.361
393.60 2.357
393.70 2.353
393.80 2.348
393.90 2.343
394.00 2.338
394.10 2.332
394.20 2.326
394.30 2.32
394.40 2.313
394.50 2.306
394.60 2.298
394.70 2.29
394.80 2.282
394.90 2.273
395.00 2.263
395.10 2.253
395.20 2.242
395.30 2.231
395.40 2.219
395.50 2.206
395.60 2.193
395.70 2.179
395.80 2.164
395.90 2.148
396.00 2.132
396.10 2.115
396.20 2.097
396.30 2.078
396.40 2.059
396.50 2.039
396.60 2.019
396.70 1.999
396.80 1.978
396.90 1.958
397.00 1.939
397.10 1.953
397.20 1.969
397.30 1.986
397.40 2.003
397.50 2.02
397.60 2.036
397.70 2.051
397.80 2.066
397.90 2.081
398.00 2.094
398.10 2.107
398.20 2.119
398.30 2.13
398.40 2.14
398.50 2.15
398.60 2.159
398.70 2.167
398.80 2.175
398.90 2.182
399.00 2.188
399.10 2.195
399.20 2.2
399.30 2.205
399.40 2.209
399.50 2.213
399.60 2.217
399.70 2.22
399.80 2.223
399.90 2.226
400.00 2.228
400.10 2.23
400.20 2.232
400.30 2.233
400.40 2.234
400.50 2.235
400.60 2.236
400.70 2.237
400.80 2.237
400.90 2.238
401.00 2.238
401.10 2.238
401.20 2.238
401.30 2.237
401.40 2.237
401.50 2.236
401.60 2.236
401.70 2.235
401.80 2.234
401.90 2.233
402.00 2.232
402.10 2.231
402.20 2.23
402.30 2.229
402.40 2.227
402.50 2.226
402.60 2.224
402.70 2.223
402.80 2.221
402.90 2.22
403.00 2.218
403.10 2.216
403.20 2.214
403.30 2.213
403.40 2.211
403.50 2.209
403.60 2.207
403.70 2.205
403.80 2.202
403.90 2.2
404.00 2.198
404.10 2.196
404.20 2.193
404.30 2.191
404.40 2.189
404.50 2.186
404.60 2.183
404.70 2.181
404.80 2.178
404.90 2.175
405.00 2.172
405.10 2.17
405.20 2.166
405.30 2.163
405.40 2.16
405.50 2.157
405.60 2.154
405.70 2.15
405.80 2.146
405.90 2.143
406.00 2.139
406.10 2.135
406.20 2.131
406.30 2.127
406.40 2.122
406.50 2.117
406.60 2.113
406.70 2.107
406.80 2.102
406.90 2.097
407.00 2.091
407.10 2.085
407.20 2.079
407.30 2.072
407.40 2.065
407.50 2.058
407.60 2.05
407.70 2.042
407.80 2.033
407.90 2.024
408.00 2.014
408.10 2.005
408.20 1.994
408.30 1.982
408.40 1.971
408.50 1.958
408.60 1.944
408.70 1.93
408.80 1.915
408.90 1.899
409.00 1.883
409.10 1.865
409.20 1.846
409.30 1.827
409.40 1.806
409.50 1.785
409.60 1.762
409.70 1.739
409.80 1.715
409.90 1.69
410.00 1.665
410.10 1.65
410.20 1.644
410.30 1.655
410.40 1.672
410.50 1.694
410.60 1.716
410.70 1.736
410.80 1.756
410.90 1.775
411.00 1.792
411.10 1.809
411.20 1.825
411.30 1.839
411.40 1.853
411.50 1.866
411.60 1.878
411.70 1.889
411.80 1.899
411.90 1.908
412.00 1.917
412.10 1.924
412.20 1.932
412.30 1.938
412.40 1.944
412.50 1.95
412.60 1.955
412.70 1.959
412.80 1.963
412.90 1.967
413.00 1.971
413.10 1.974
413.20 1.976
413.30 1.979
413.40 1.981
413.50 1.983
413.60 1.984
413.70 1.985
413.80 1.987
413.90 1.988
414.00 1.988
414.10 1.989
414.20 1.989
414.30 1.99
414.40 1.99
414.50 1.99
414.60 1.99
414.70 1.99
414.80 1.99
414.90 1.989
415.00 1.989
415.10 1.988
415.20 1.988
415.30 1.987
415.40 1.986
415.50 1.986
415.60 1.985
415.70 1.984
415.80 1.983
415.90 1.982
416.00 1.981
416.10 1.98
416.20 1.979
416.30 1.978
416.40 1.977
416.50 1.975
416.60 1.974
416.70 1.973
416.80 1.972
416.90 1.97
417.00 1.969
417.10 1.968
417.20 1.966
417.30 1.965
417.40 1.963
417.50 1.962
417.60 1.961
417.70 1.959
417.80 1.958
417.90 1.956
418.00 1.955
418.10 1.953
418.20 1.952
418.30 1.95
418.40 1.949
418.50 1.947
418.60 1.946
418.70 1.944
418.80 1.943
418.90 1.941
419.00 1.939
419.10 1.938
419.20 1.936
419.30 1.935
419.40 1.933
419.50 1.932
419.60 1.93
419.70 1.928
419.80 1.927
419.90 1.925
420.00 1.923
420.10 1.922
420.20 1.92
420.30 1.919
420.40 1.917
420.50 1.915
420.60 1.914
420.70 1.912
420.80 1.91
420.90 1.909
421.00 1.907
421.10 1.905
421.20 1.904
421.30 1.902
421.40 1.9
421.50 1.899
421.60 1.897
421.70 1.895
421.80 1.894
421.90 1.892
422.00 1.89
422.10 1.889
422.20 1.887
422.30 1.885
422.40 1.884
422.50 1.882
422.60 1.88
422.70 1.879
422.80 1.877
422.90 1.875
423.00 1.874
423.10 1.872
423.20 1.87
423.30 1.868
423.40 1.867
423.50 1.865
423.60 1.863
423.70 1.862
423.80 1.86
423.90 1.858
424.00 1.856
424.10 1.855
424.20 1.853
424.30 1.851
424.40 1.85
424.50 1.848
424.60 1.846
424.70 1.844
424.80 1.843
424.90 1.841
425.00 1.839
425.10 1.837
425.20 1.836
425.30 1.834
425.40 1.832
425.50 1.83
425.60 1.828
425.70 1.827
425.80 1.825
425.90 1.823
426.00 1.821
426.10 1.819
426.20 1.817
426.30 1.816
426.40 1.814
426.50 1.812
426.60 1.81
426.70 1.808
426.80 1.806
426.90 1.804
427.00 1.802
427.10 1.8
427.20 1.798
427.30 1.796
427.40 1.794
427.50 1.792
427.60 1.79
427.70 1.788
427.80 1.786
427.90 1.784
428.00 1.782
428.10 1.78
428.20 1.777
428.30 1.775
428.40 1.773
428.50 1.771
428.60 1.768
428.70 1.766
428.80 1.763
428.90 1.761
429.00 1.758
429.10 1.756
429.20 1.753
429.30 1.751
429.40 1.748
429.50 1.745
429.60 1.742
429.70 1.739
429.80 1.736
429.90 1.733
430.00 1.729
430.10 1.726
430.20 1.722
430.30 1.719
430.40 1.715
430.50 1.711
430.60 1.707
430.70 1.702
430.80 1.698
430.90 1.693
431.00 1.688
431.10 1.683
431.20 1.678
431.30 1.672
431.40 1.666
431.50 1.659
431.60 1.653
431.70 1.645
431.80 1.638
431.90 1.63
432.00 1.621
432.10 1.612
432.20 1.603
432.30 1.592
432.40 1.582
432.50 1.57
432.60 1.558
432.70 1.545
432.80 1.531
432.90 1.516
433.00 1.501
433.10 1.484
433.20 1.467
433.30 1.449
433.40 1.429
433.50 1.409
433.60 1.388
433.70 1.366
433.80 1.343
433.90 1.319
434.00 1.296
434.10 1.296
434.20 1.318
434.30 1.339
434.40 1.36
434.50 1.38
434.60 1.398
434.70 1.416
434.80 1.433
434.90 1.448
435.00 1.463
435.10 1.477
435.20 1.49
435.30 1.502
435.40 1.513
435.50 1.523
435.60 1.532
435.70 1.541
435.80 1.549
435.90 1.556
436.00 1.563
436.10 1.568
436.20 1.574
436.30 1.579
436.40 1.584
436.50 1.588
436.60 1.592
436.70 1.595
436.80 1.598
436.90 1.601
437.00 1.603
437.10 1.605
437.20 1.607
437.30 1.609
437.40 1.61
437.50 1.611
437.60 1.612
437.70 1.613
437.80 1.614
437.90 1.615
438.00 1.615
438.10 1.616
438.20 1.616
438.30 1.616
438.40 1.616
438.50 1.616
438.60 1.616
438.70 1.616
438.80 1.615
438.90 1.615
439.00 1.615
439.10 1.614
439.20 1.614
439.30 1.613
439.40 1.613
439.50 1.612
439.60 1.611
439.70 1.611
439.80 1.61
439.90 1.609
440.00 1.608
440.10 1.607
440.20 1.607
440.30 1.606
440.40 1.605
440.50 1.604
440.60 1.603
440.70 1.602
440.80 1.601
440.90 1.6
441.00 1.599
441.10 1.598
441.20 1.597
441.30 1.596
441.40 1.595
441.50 1.594
441.60 1.593
441.70 1.591
441.80 1.59
441.90 1.589
442.00 1.588
442.10 1.587
442.20 1.586
442.30 1.585
442.40 1.583
442.50 1.582
442.60 1.581
442.70 1.58
442.80 1.579
442.90 1.578
443.00 1.576
443.10 1.575
443.20 1.574
443.30 1.573
443.40 1.572
443.50 1.57
443.60 1.569
443.70 1.568
443.80 1.567
443.90 1.565
444.00 1.564
444.10 1.563
444.20 1.562
444.30 1.561
444.40 1.559
444.50 1.558
444.60 1.557
444.70 1.556
444.80 1.554
444.90 1.553
445.00 1.552
445.10 1.551
445.20 1.549
445.30 1.548
445.40 1.547
445.50 1.546
445.60 1.544
445.70 1.543
445.80 1.542
445.90 1.541
446.00 1.539
446.10 1.538
446.20 1.537
446.30 1.536
446.40 1.534
446.50 1.533
446.60 1.532
446.70 1.531
446.80 1.529
446.90 1.528
447.00 1.527
447.10 1.526
447.20 1.524
447.30 1.523
447.40 1.522
447.50 1.521
447.60 1.519
447.70 1.518
447.80 1.517
447.90 1.516
448.00 1.514
448.10 1.513
448.20 1.512
448.30 1.511
448.40 1.509
448.50 1.508
448.60 1.507
448.70 1.506
448.80 1.504
448.90 1.503
449.00 1.502
449.10 1.501
449.20 1.499
449.30 1.498
449.40 1.497
449.50 1.496
449.60 1.494
449.70 1.493
449.80 1.492
449.90 1.491
450.00 1.49
450.10 1.488
450.20 1.487
450.30 1.486
450.40 1.485
450.50 1.483
450.60 1.482
450.70 1.481
450.80 1.48
450.90 1.478
451.00 1.477
451.10 1.476
451.20 1.475
451.30 1.474
451.40 1.472
451.50 1.471
451.60 1.47
451.70 1.469
451.80 1.468
451.90 1.466
452.00 1.465
452.10 1.464
452.20 1.463
452.30 1.461
452.40 1.46
452.50 1.459
452.60 1.458
452.70 1.457
452.80 1.455
452.90 1.454
453.00 1.453
453.10 1.452
453.20 1.451
453.30 1.449
453.40 1.448
453.50 1.447
453.60 1.446
453.70 1.445
453.80 1.443
453.90 1.442
454.00 1.441
