# Version 2.1 - nm, norm@500 to 1, cut digits, bergeron_1750_85.dat_1750
# Wavelength(nm)  Flambda(ergs/cm^s/s/nm)
300.00 0.0343
300.10 0.03443
300.20 0.03455
300.30 0.03468
300.40 0.03481
300.50 0.03493
300.60 0.03506
300.70 0.03519
300.80 0.03531
300.90 0.03544
301.00 0.03556
301.10 0.03569
301.20 0.03581
301.30 0.03594
301.40 0.03607
301.50 0.03619
301.60 0.03632
301.70 0.03644
301.80 0.03656
301.90 0.03669
302.00 0.03682
302.10 0.03695
302.20 0.03708
302.30 0.03721
302.40 0.03734
302.50 0.03748
302.60 0.03761
302.70 0.03774
302.80 0.03787
302.90 0.038
303.00 0.03813
303.10 0.03827
303.20 0.0384
303.30 0.03853
303.40 0.03866
303.50 0.03879
303.60 0.03892
303.70 0.03905
303.80 0.03918
303.90 0.03931
304.00 0.03944
304.10 0.03958
304.20 0.03972
304.30 0.03985
304.40 0.03999
304.50 0.04013
304.60 0.04027
304.70 0.04041
304.80 0.04054
304.90 0.04068
305.00 0.04082
305.10 0.04096
305.20 0.04109
305.30 0.04123
305.40 0.04137
305.50 0.0415
305.60 0.04164
305.70 0.04177
305.80 0.04191
305.90 0.04204
306.00 0.04219
306.10 0.04233
306.20 0.04247
306.30 0.04261
306.40 0.04276
306.50 0.0429
306.60 0.04305
306.70 0.04319
306.80 0.04333
306.90 0.04348
307.00 0.04362
307.10 0.04376
307.20 0.04391
307.30 0.04405
307.40 0.04419
307.50 0.04433
307.60 0.04448
307.70 0.04462
307.80 0.04476
307.90 0.0449
308.00 0.04505
308.10 0.0452
308.20 0.04534
308.30 0.04549
308.40 0.04565
308.50 0.0458
308.60 0.04595
308.70 0.0461
308.80 0.04625
308.90 0.0464
309.00 0.04654
309.10 0.04669
309.20 0.04684
309.30 0.04699
309.40 0.04714
309.50 0.04729
309.60 0.04744
309.70 0.04758
309.80 0.04773
309.90 0.04788
310.00 0.04803
310.10 0.04819
310.20 0.04834
310.30 0.0485
310.40 0.04866
310.50 0.04882
310.60 0.04897
310.70 0.04913
310.80 0.04929
310.90 0.04944
311.00 0.0496
311.10 0.04976
311.20 0.04991
311.30 0.05007
311.40 0.05022
311.50 0.05038
311.60 0.05053
311.70 0.05069
311.80 0.05084
311.90 0.051
312.00 0.05115
312.10 0.0513
312.20 0.05146
312.30 0.05163
312.40 0.05179
312.50 0.05195
312.60 0.05212
312.70 0.05228
312.80 0.05244
312.90 0.05261
313.00 0.05277
313.10 0.05293
313.20 0.05309
313.30 0.05326
313.40 0.05342
313.50 0.05358
313.60 0.05374
313.70 0.0539
313.80 0.05406
313.90 0.05423
314.00 0.05439
314.10 0.05456
314.20 0.05473
314.30 0.0549
314.40 0.05507
314.50 0.05524
314.60 0.05541
314.70 0.05558
314.80 0.05575
314.90 0.05592
315.00 0.05609
315.10 0.05626
315.20 0.05642
315.30 0.05659
315.40 0.05676
315.50 0.05693
315.60 0.0571
315.70 0.05726
315.80 0.05743
315.90 0.0576
316.00 0.05777
316.10 0.05794
316.20 0.05812
316.30 0.0583
316.40 0.05848
316.50 0.05865
316.60 0.05883
316.70 0.05901
316.80 0.05918
316.90 0.05936
317.00 0.05953
317.10 0.05971
317.20 0.05989
317.30 0.06006
317.40 0.06024
317.50 0.06041
317.60 0.06059
317.70 0.06076
317.80 0.06093
317.90 0.06111
318.00 0.06129
318.10 0.06147
318.20 0.06165
318.30 0.06184
318.40 0.06202
318.50 0.0622
318.60 0.06239
318.70 0.06257
318.80 0.06276
318.90 0.06294
319.00 0.06312
319.10 0.0633
319.20 0.06349
319.30 0.06367
319.40 0.06385
319.50 0.06403
319.60 0.06421
319.70 0.0644
319.80 0.06458
319.90 0.06476
320.00 0.06495
320.10 0.06513
320.20 0.06532
320.30 0.06551
320.40 0.06571
320.50 0.0659
320.60 0.06609
320.70 0.06628
320.80 0.06647
320.90 0.06666
321.00 0.06685
321.10 0.06704
321.20 0.06723
321.30 0.06742
321.40 0.06761
321.50 0.0678
321.60 0.06799
321.70 0.06817
321.80 0.06836
321.90 0.06855
322.00 0.06874
322.10 0.06894
322.20 0.06914
322.30 0.06934
322.40 0.06954
322.50 0.06973
322.60 0.06993
322.70 0.07013
322.80 0.07033
322.90 0.07053
323.00 0.07072
323.10 0.07092
323.20 0.07112
323.30 0.07131
323.40 0.07151
323.50 0.07171
323.60 0.0719
323.70 0.0721
323.80 0.07229
323.90 0.07249
324.00 0.07269
324.10 0.07289
324.20 0.0731
324.30 0.0733
324.40 0.07351
324.50 0.07372
324.60 0.07392
324.70 0.07413
324.80 0.07433
324.90 0.07454
325.00 0.07474
325.10 0.07495
325.20 0.07515
325.30 0.07536
325.40 0.07556
325.50 0.07576
325.60 0.07597
325.70 0.07617
325.80 0.07637
325.90 0.07658
326.00 0.07679
326.10 0.07699
326.20 0.07721
326.30 0.07742
326.40 0.07763
326.50 0.07785
326.60 0.07806
326.70 0.07827
326.80 0.07849
326.90 0.0787
327.00 0.07891
327.10 0.07912
327.20 0.07934
327.30 0.07955
327.40 0.07976
327.50 0.07997
327.60 0.08018
327.70 0.08039
327.80 0.0806
327.90 0.08081
328.00 0.08103
328.10 0.08125
328.20 0.08146
328.30 0.08169
328.40 0.08191
328.50 0.08213
328.60 0.08235
328.70 0.08257
328.80 0.08279
328.90 0.08301
329.00 0.08323
329.10 0.08345
329.20 0.08367
329.30 0.08389
329.40 0.08411
329.50 0.08433
329.60 0.08455
329.70 0.08476
329.80 0.08498
329.90 0.0852
330.00 0.08542
330.10 0.08565
330.20 0.08588
330.30 0.08611
330.40 0.08634
330.50 0.08656
330.60 0.08679
330.70 0.08702
330.80 0.08725
330.90 0.08748
331.00 0.08771
331.10 0.08793
331.20 0.08816
331.30 0.08839
331.40 0.08861
331.50 0.08884
331.60 0.08907
331.70 0.08929
331.80 0.08952
331.90 0.08974
332.00 0.08997
332.10 0.0902
332.20 0.09044
332.30 0.09068
332.40 0.09092
332.50 0.09115
332.60 0.09139
332.70 0.09163
332.80 0.09186
332.90 0.0921
333.00 0.09233
333.10 0.09257
333.20 0.0928
333.30 0.09304
333.40 0.09327
333.50 0.09351
333.60 0.09374
333.70 0.09397
333.80 0.09421
333.90 0.09444
334.00 0.09467
334.10 0.09492
334.20 0.09516
334.30 0.09541
334.40 0.09566
334.50 0.0959
334.60 0.09614
334.70 0.09639
334.80 0.09663
334.90 0.09688
335.00 0.09712
335.10 0.09736
335.20 0.09761
335.30 0.09785
335.40 0.09809
335.50 0.09833
335.60 0.09857
335.70 0.09881
335.80 0.09906
335.90 0.0993
336.00 0.09954
336.10 0.09979
336.20 0.1
336.30 0.1003
336.40 0.1006
336.50 0.1008
336.60 0.1011
336.70 0.1013
336.80 0.1016
336.90 0.1018
337.00 0.1021
337.10 0.1023
337.20 0.1026
337.30 0.1028
337.40 0.1031
337.50 0.1033
337.60 0.1036
337.70 0.1038
337.80 0.1041
337.90 0.1043
338.00 0.1046
338.10 0.1048
338.20 0.1051
338.30 0.1053
338.40 0.1056
338.50 0.1059
338.60 0.1061
338.70 0.1064
338.80 0.1066
338.90 0.1069
339.00 0.1072
339.10 0.1074
339.20 0.1077
339.30 0.1079
339.40 0.1082
339.50 0.1085
339.60 0.1087
339.70 0.109
339.80 0.1092
339.90 0.1095
340.00 0.1097
340.10 0.11
340.20 0.1103
340.30 0.1106
340.40 0.1108
340.50 0.1111
340.60 0.1114
340.70 0.1116
340.80 0.1119
340.90 0.1122
341.00 0.1124
341.10 0.1127
341.20 0.113
341.30 0.1132
341.40 0.1135
341.50 0.1138
341.60 0.114
341.70 0.1143
341.80 0.1146
341.90 0.1148
342.00 0.1151
342.10 0.1154
342.20 0.1156
342.30 0.1159
342.40 0.1162
342.50 0.1165
342.60 0.1168
342.70 0.117
342.80 0.1173
342.90 0.1176
343.00 0.1179
343.10 0.1181
343.20 0.1184
343.30 0.1187
343.40 0.119
343.50 0.1192
343.60 0.1195
343.70 0.1198
343.80 0.1201
343.90 0.1203
344.00 0.1206
344.10 0.1209
344.20 0.1212
344.30 0.1215
344.40 0.1217
344.50 0.122
344.60 0.1223
344.70 0.1226
344.80 0.1229
344.90 0.1232
345.00 0.1235
345.10 0.1237
345.20 0.124
345.30 0.1243
345.40 0.1246
345.50 0.1249
345.60 0.1252
345.70 0.1254
345.80 0.1257
345.90 0.126
346.00 0.1263
346.10 0.1266
346.20 0.1269
346.30 0.1272
346.40 0.1275
346.50 0.1277
346.60 0.128
346.70 0.1283
346.80 0.1286
346.90 0.1289
347.00 0.1292
347.10 0.1295
347.20 0.1298
347.30 0.1301
347.40 0.1304
347.50 0.1307
347.60 0.131
347.70 0.1312
347.80 0.1315
347.90 0.1318
348.00 0.1321
348.10 0.1324
348.20 0.1327
348.30 0.133
348.40 0.1333
348.50 0.1336
348.60 0.1339
348.70 0.1342
348.80 0.1345
348.90 0.1348
349.00 0.1351
349.10 0.1354
349.20 0.1357
349.30 0.136
349.40 0.1363
349.50 0.1366
349.60 0.1369
349.70 0.1372
349.80 0.1375
349.90 0.1378
350.00 0.1381
350.10 0.1384
350.20 0.1387
350.30 0.1391
350.40 0.1394
350.50 0.1397
350.60 0.14
350.70 0.1403
350.80 0.1406
350.90 0.1409
351.00 0.1412
351.10 0.1415
351.20 0.1418
351.30 0.1422
351.40 0.1425
351.50 0.1428
351.60 0.1431
351.70 0.1434
351.80 0.1437
351.90 0.144
352.00 0.1443
352.10 0.1446
352.20 0.1449
352.30 0.1453
352.40 0.1456
352.50 0.1459
352.60 0.1462
352.70 0.1465
352.80 0.1469
352.90 0.1472
353.00 0.1475
353.10 0.1478
353.20 0.1481
353.30 0.1484
353.40 0.1488
353.50 0.1491
353.60 0.1494
353.70 0.1497
353.80 0.15
353.90 0.1503
354.00 0.1506
354.10 0.151
354.20 0.1513
354.30 0.1516
354.40 0.152
354.50 0.1523
354.60 0.1526
354.70 0.1529
354.80 0.1533
354.90 0.1536
355.00 0.1539
355.10 0.1542
355.20 0.1546
355.30 0.1549
355.40 0.1552
355.50 0.1555
355.60 0.1559
355.70 0.1562
355.80 0.1565
355.90 0.1568
356.00 0.1572
356.10 0.1575
356.20 0.1578
356.30 0.1582
356.40 0.1585
356.50 0.1588
356.60 0.1592
356.70 0.1595
356.80 0.1598
356.90 0.1602
357.00 0.1605
357.10 0.1608
357.20 0.1612
357.30 0.1615
357.40 0.1618
357.50 0.1622
357.60 0.1625
357.70 0.1628
357.80 0.1632
357.90 0.1635
358.00 0.1638
358.10 0.1642
358.20 0.1645
358.30 0.1649
358.40 0.1652
358.50 0.1656
358.60 0.1659
358.70 0.1663
358.80 0.1666
358.90 0.1669
359.00 0.1673
359.10 0.1676
359.20 0.168
359.30 0.1683
359.40 0.1686
359.50 0.169
359.60 0.1693
359.70 0.1697
359.80 0.17
359.90 0.1703
360.00 0.1707
360.10 0.171
360.20 0.1714
360.30 0.1717
360.40 0.1721
360.50 0.1725
360.60 0.1728
360.70 0.1732
360.80 0.1735
360.90 0.1739
361.00 0.1742
361.10 0.1746
361.20 0.1749
361.30 0.1753
361.40 0.1756
361.50 0.176
361.60 0.1763
361.70 0.1767
361.80 0.177
361.90 0.1774
362.00 0.1777
362.10 0.1781
362.20 0.1784
362.30 0.1788
362.40 0.1791
362.50 0.1795
362.60 0.1799
362.70 0.1802
362.80 0.1806
362.90 0.1809
363.00 0.1813
363.10 0.1816
363.20 0.182
363.30 0.1824
363.40 0.1827
363.50 0.1831
363.60 0.1835
363.70 0.1838
363.80 0.1842
363.90 0.1846
364.00 0.1849
364.10 0.1853
364.20 0.1856
364.30 0.186
364.40 0.1864
364.50 0.1867
364.60 0.1871
364.70 0.1875
364.80 0.1878
364.90 0.1882
365.00 0.1886
365.10 0.189
365.20 0.1893
365.30 0.1897
365.40 0.1901
365.50 0.1904
365.60 0.1908
365.70 0.1912
365.80 0.1915
365.90 0.1919
366.00 0.1923
366.10 0.1926
366.20 0.193
366.30 0.1934
366.40 0.1938
366.50 0.1942
366.60 0.1945
366.70 0.1949
366.80 0.1953
366.90 0.1957
367.00 0.196
367.10 0.1964
367.20 0.1968
367.30 0.1972
367.40 0.1975
367.50 0.1979
367.60 0.1983
367.70 0.1987
367.80 0.199
367.90 0.1994
368.00 0.1998
368.10 0.2002
368.20 0.2006
368.30 0.201
368.40 0.2013
368.50 0.2017
368.60 0.2021
368.70 0.2025
368.80 0.2029
368.90 0.2033
369.00 0.2037
369.10 0.2041
369.20 0.2044
369.30 0.2048
369.40 0.2052
369.50 0.2056
369.60 0.206
369.70 0.2064
369.80 0.2067
369.90 0.2071
370.00 0.2075
370.10 0.2079
370.20 0.2083
370.30 0.2087
370.40 0.2091
370.50 0.2095
370.60 0.2099
370.70 0.2103
370.80 0.2107
370.90 0.2111
371.00 0.2115
371.10 0.2119
371.20 0.2122
371.30 0.2126
371.40 0.213
371.50 0.2134
371.60 0.2138
371.70 0.2142
371.80 0.2146
371.90 0.215
372.00 0.2154
372.10 0.2158
372.20 0.2162
372.30 0.2166
372.40 0.217
372.50 0.2174
372.60 0.2178
372.70 0.2182
372.80 0.2186
372.90 0.219
373.00 0.2194
373.10 0.2198
373.20 0.2202
373.30 0.2206
373.40 0.221
373.50 0.2214
373.60 0.2218
373.70 0.2222
373.80 0.2226
373.90 0.223
374.00 0.2234
374.10 0.2238
374.20 0.2242
374.30 0.2247
374.40 0.2251
374.50 0.2255
374.60 0.2259
374.70 0.2263
374.80 0.2267
374.90 0.2271
375.00 0.2275
375.10 0.228
375.20 0.2284
375.30 0.2288
375.40 0.2292
375.50 0.2296
375.60 0.23
375.70 0.2304
375.80 0.2308
375.90 0.2312
376.00 0.2316
376.10 0.232
376.20 0.2325
376.30 0.2329
376.40 0.2333
376.50 0.2337
376.60 0.2341
376.70 0.2346
376.80 0.235
376.90 0.2354
377.00 0.2358
377.10 0.2362
377.20 0.2366
377.30 0.2371
377.40 0.2375
377.50 0.2379
377.60 0.2383
377.70 0.2388
377.80 0.2392
377.90 0.2396
378.00 0.24
378.10 0.2404
378.20 0.2409
378.30 0.2413
378.40 0.2417
378.50 0.2421
378.60 0.2426
378.70 0.243
378.80 0.2434
378.90 0.2438
379.00 0.2443
379.10 0.2447
379.20 0.2451
379.30 0.2456
379.40 0.246
379.50 0.2464
379.60 0.2468
379.70 0.2473
379.80 0.2477
379.90 0.2481
380.00 0.2486
380.10 0.249
380.20 0.2494
380.30 0.2499
380.40 0.2503
380.50 0.2507
380.60 0.2512
380.70 0.2516
380.80 0.252
380.90 0.2525
381.00 0.2529
381.10 0.2533
381.20 0.2538
381.30 0.2542
381.40 0.2546
381.50 0.2551
381.60 0.2555
381.70 0.256
381.80 0.2564
381.90 0.2568
382.00 0.2573
382.10 0.2577
382.20 0.2582
382.30 0.2586
382.40 0.259
382.50 0.2595
382.60 0.2599
382.70 0.2604
382.80 0.2608
382.90 0.2613
383.00 0.2617
383.10 0.2622
383.20 0.2626
383.30 0.263
383.40 0.2635
383.50 0.2639
383.60 0.2644
383.70 0.2648
383.80 0.2653
383.90 0.2657
384.00 0.2662
384.10 0.2666
384.20 0.2671
384.30 0.2675
384.40 0.268
384.50 0.2684
384.60 0.2689
384.70 0.2693
384.80 0.2698
384.90 0.2702
385.00 0.2707
385.10 0.2711
385.20 0.2716
385.30 0.272
385.40 0.2725
385.50 0.2729
385.60 0.2734
385.70 0.2738
385.80 0.2743
385.90 0.2748
386.00 0.2752
386.10 0.2757
386.20 0.2761
386.30 0.2766
386.40 0.277
386.50 0.2775
386.60 0.278
386.70 0.2784
386.80 0.2789
386.90 0.2793
387.00 0.2798
387.10 0.2803
387.20 0.2807
387.30 0.2812
387.40 0.2816
387.50 0.2821
387.60 0.2826
387.70 0.283
387.80 0.2835
387.90 0.284
388.00 0.2844
388.10 0.2849
388.20 0.2854
388.30 0.2858
388.40 0.2863
388.50 0.2868
388.60 0.2872
388.70 0.2877
388.80 0.2882
388.90 0.2886
389.00 0.2891
389.10 0.2896
389.20 0.29
389.30 0.2905
389.40 0.291
389.50 0.2915
389.60 0.2919
389.70 0.2924
389.80 0.2929
389.90 0.2933
390.00 0.2938
390.10 0.2943
390.20 0.2948
390.30 0.2952
390.40 0.2957
390.50 0.2962
390.60 0.2967
390.70 0.2971
390.80 0.2976
390.90 0.2981
391.00 0.2986
391.10 0.299
391.20 0.2995
391.30 0.3
391.40 0.3005
391.50 0.301
391.60 0.3014
391.70 0.3019
391.80 0.3024
391.90 0.3029
392.00 0.3033
392.10 0.3038
392.20 0.3043
392.30 0.3048
392.40 0.3053
392.50 0.3058
392.60 0.3062
392.70 0.3067
392.80 0.3072
392.90 0.3077
393.00 0.3082
393.10 0.3087
393.20 0.3092
393.30 0.3096
393.40 0.3101
393.50 0.3106
393.60 0.3111
393.70 0.3116
393.80 0.3121
393.90 0.3126
394.00 0.3131
394.10 0.3135
394.20 0.314
394.30 0.3145
394.40 0.315
394.50 0.3155
394.60 0.316
394.70 0.3165
394.80 0.317
394.90 0.3175
395.00 0.318
395.10 0.3185
395.20 0.319
395.30 0.3195
395.40 0.3199
395.50 0.3204
395.60 0.3209
395.70 0.3214
395.80 0.3219
395.90 0.3224
396.00 0.3229
396.10 0.3234
396.20 0.3239
396.30 0.3244
396.40 0.3249
396.50 0.3254
396.60 0.3259
396.70 0.3264
396.80 0.3269
396.90 0.3274
397.00 0.3279
397.10 0.3284
397.20 0.3289
397.30 0.3294
397.40 0.3299
397.50 0.3304
397.60 0.3309
397.70 0.3314
397.80 0.3319
397.90 0.3324
398.00 0.3329
398.10 0.3335
398.20 0.334
398.30 0.3345
398.40 0.335
398.50 0.3355
398.60 0.336
398.70 0.3365
398.80 0.337
398.90 0.3375
399.00 0.338
399.10 0.3385
399.20 0.339
399.30 0.3396
399.40 0.3401
399.50 0.3406
399.60 0.3411
399.70 0.3416
399.80 0.3421
399.90 0.3426
400.00 0.3431
400.10 0.3437
400.20 0.3442
400.30 0.3447
400.40 0.3452
400.50 0.3457
400.60 0.3462
400.70 0.3467
400.80 0.3473
400.90 0.3478
401.00 0.3483
401.10 0.3488
401.20 0.3493
401.30 0.3498
401.40 0.3504
401.50 0.3509
401.60 0.3514
401.70 0.3519
401.80 0.3524
401.90 0.353
402.00 0.3535
402.10 0.354
402.20 0.3545
402.30 0.355
402.40 0.3556
402.50 0.3561
402.60 0.3566
402.70 0.3571
402.80 0.3576
402.90 0.3582
403.00 0.3587
403.10 0.3592
403.20 0.3598
403.30 0.3603
403.40 0.3608
403.50 0.3613
403.60 0.3619
403.70 0.3624
403.80 0.3629
403.90 0.3634
404.00 0.364
404.10 0.3645
404.20 0.365
404.30 0.3656
404.40 0.3661
404.50 0.3666
404.60 0.3672
404.70 0.3677
404.80 0.3682
404.90 0.3687
405.00 0.3693
405.10 0.3698
405.20 0.3703
405.30 0.3709
405.40 0.3714
405.50 0.3719
405.60 0.3725
405.70 0.373
405.80 0.3735
405.90 0.3741
406.00 0.3746
406.10 0.3752
406.20 0.3757
406.30 0.3762
406.40 0.3768
406.50 0.3773
406.60 0.3778
406.70 0.3784
406.80 0.3789
406.90 0.3795
407.00 0.38
407.10 0.3805
407.20 0.3811
407.30 0.3816
407.40 0.3822
407.50 0.3827
407.60 0.3832
407.70 0.3838
407.80 0.3843
407.90 0.3849
408.00 0.3854
408.10 0.386
408.20 0.3865
408.30 0.387
408.40 0.3876
408.50 0.3881
408.60 0.3887
408.70 0.3892
408.80 0.3898
408.90 0.3903
409.00 0.3909
409.10 0.3914
409.20 0.392
409.30 0.3925
409.40 0.3931
409.50 0.3936
409.60 0.3942
409.70 0.3947
409.80 0.3953
409.90 0.3958
410.00 0.3964
410.10 0.3969
410.20 0.3975
410.30 0.398
410.40 0.3986
410.50 0.3991
410.60 0.3997
410.70 0.4002
410.80 0.4008
410.90 0.4013
411.00 0.4019
411.10 0.4024
411.20 0.403
411.30 0.4036
411.40 0.4041
411.50 0.4047
411.60 0.4052
411.70 0.4058
411.80 0.4063
411.90 0.4069
412.00 0.4075
412.10 0.408
412.20 0.4086
412.30 0.4091
412.40 0.4097
412.50 0.4103
412.60 0.4108
412.70 0.4114
412.80 0.4119
412.90 0.4125
413.00 0.4131
413.10 0.4136
413.20 0.4142
413.30 0.4147
413.40 0.4153
413.50 0.4159
413.60 0.4164
413.70 0.417
413.80 0.4176
413.90 0.4181
414.00 0.4187
414.10 0.4193
414.20 0.4198
414.30 0.4204
414.40 0.421
414.50 0.4215
414.60 0.4221
414.70 0.4227
414.80 0.4232
414.90 0.4238
415.00 0.4244
415.10 0.4249
415.20 0.4255
415.30 0.4261
415.40 0.4267
415.50 0.4272
415.60 0.4278
415.70 0.4284
415.80 0.4289
415.90 0.4295
416.00 0.4301
416.10 0.4307
416.20 0.4312
416.30 0.4318
416.40 0.4324
416.50 0.433
416.60 0.4335
416.70 0.4341
416.80 0.4347
416.90 0.4353
417.00 0.4358
417.10 0.4364
417.20 0.437
417.30 0.4376
417.40 0.4381
417.50 0.4387
417.60 0.4393
417.70 0.4399
417.80 0.4405
417.90 0.441
418.00 0.4416
418.10 0.4422
418.20 0.4428
418.30 0.4434
418.40 0.4439
418.50 0.4445
418.60 0.4451
418.70 0.4457
418.80 0.4463
418.90 0.4468
419.00 0.4474
419.10 0.448
419.20 0.4486
419.30 0.4492
419.40 0.4498
419.50 0.4503
419.60 0.4509
419.70 0.4515
419.80 0.4521
419.90 0.4527
420.00 0.4533
420.10 0.4539
420.20 0.4545
420.30 0.455
420.40 0.4556
420.50 0.4562
420.60 0.4568
420.70 0.4574
420.80 0.458
420.90 0.4586
421.00 0.4592
421.10 0.4598
421.20 0.4603
421.30 0.4609
421.40 0.4615
421.50 0.4621
421.60 0.4627
421.70 0.4633
421.80 0.4639
421.90 0.4645
422.00 0.4651
422.10 0.4657
422.20 0.4663
422.30 0.4669
422.40 0.4675
422.50 0.4681
422.60 0.4687
422.70 0.4693
422.80 0.4698
422.90 0.4704
423.00 0.471
423.10 0.4716
423.20 0.4722
423.30 0.4728
423.40 0.4734
423.50 0.474
423.60 0.4746
423.70 0.4752
423.80 0.4758
423.90 0.4764
424.00 0.477
424.10 0.4776
424.20 0.4782
424.30 0.4788
424.40 0.4794
424.50 0.48
424.60 0.4806
424.70 0.4812
424.80 0.4818
424.90 0.4824
425.00 0.483
425.10 0.4836
425.20 0.4843
425.30 0.4849
425.40 0.4855
425.50 0.4861
425.60 0.4867
425.70 0.4873
425.80 0.4879
425.90 0.4885
426.00 0.4891
426.10 0.4897
426.20 0.4903
426.30 0.4909
426.40 0.4915
426.50 0.4921
426.60 0.4927
426.70 0.4934
426.80 0.494
426.90 0.4946
427.00 0.4952
427.10 0.4958
427.20 0.4964
427.30 0.497
427.40 0.4976
427.50 0.4982
427.60 0.4989
427.70 0.4995
427.80 0.5001
427.90 0.5007
428.00 0.5013
428.10 0.5019
428.20 0.5025
428.30 0.5031
428.40 0.5037
428.50 0.5044
428.60 0.505
428.70 0.5056
428.80 0.5062
428.90 0.5068
429.00 0.5074
429.10 0.5081
429.20 0.5087
429.30 0.5093
429.40 0.5099
429.50 0.5105
429.60 0.5111
429.70 0.5118
429.80 0.5124
429.90 0.513
430.00 0.5136
430.10 0.5142
430.20 0.5149
430.30 0.5155
430.40 0.5161
430.50 0.5167
430.60 0.5173
430.70 0.518
430.80 0.5186
430.90 0.5192
431.00 0.5198
431.10 0.5205
431.20 0.5211
431.30 0.5217
431.40 0.5223
431.50 0.523
431.60 0.5236
431.70 0.5242
431.80 0.5248
431.90 0.5255
432.00 0.5261
432.10 0.5267
432.20 0.5273
432.30 0.528
432.40 0.5286
432.50 0.5292
432.60 0.5298
432.70 0.5305
432.80 0.5311
432.90 0.5317
433.00 0.5324
433.10 0.533
433.20 0.5336
433.30 0.5342
433.40 0.5349
433.50 0.5355
433.60 0.5361
433.70 0.5368
433.80 0.5374
433.90 0.538
434.00 0.5387
434.10 0.5393
434.20 0.5399
434.30 0.5405
434.40 0.5412
434.50 0.5418
434.60 0.5424
434.70 0.5431
434.80 0.5437
434.90 0.5444
435.00 0.545
435.10 0.5456
435.20 0.5463
435.30 0.5469
435.40 0.5475
435.50 0.5482
435.60 0.5488
435.70 0.5494
435.80 0.5501
435.90 0.5507
436.00 0.5514
436.10 0.552
436.20 0.5526
436.30 0.5533
436.40 0.5539
436.50 0.5545
436.60 0.5552
436.70 0.5558
436.80 0.5565
436.90 0.5571
437.00 0.5577
437.10 0.5584
437.20 0.559
437.30 0.5597
437.40 0.5603
437.50 0.5609
437.60 0.5616
437.70 0.5622
437.80 0.5629
437.90 0.5635
438.00 0.5642
438.10 0.5648
438.20 0.5654
438.30 0.5661
438.40 0.5667
438.50 0.5674
438.60 0.568
438.70 0.5687
438.80 0.5693
438.90 0.57
439.00 0.5706
439.10 0.5713
439.20 0.5719
439.30 0.5725
439.40 0.5732
439.50 0.5738
439.60 0.5745
439.70 0.5751
439.80 0.5758
439.90 0.5764
440.00 0.5771
440.10 0.5777
440.20 0.5784
440.30 0.579
440.40 0.5797
440.50 0.5803
