# Version 2.1 - nm, norm@500 to 1, cut digits, bergeron_110000_85.dat_110000
# Wavelength(nm)  Flambda(ergs/cm^s/s/nm)
300.00 6.909
300.10 6.9
300.20 6.891
300.30 6.883
300.40 6.874
300.50 6.865
300.60 6.857
300.70 6.848
300.80 6.839
300.90 6.831
301.00 6.822
301.10 6.814
301.20 6.805
301.30 6.796
301.40 6.788
301.50 6.779
301.60 6.771
301.70 6.762
301.80 6.754
301.90 6.745
302.00 6.737
302.10 6.729
302.20 6.72
302.30 6.712
302.40 6.703
302.50 6.695
302.60 6.687
302.70 6.678
302.80 6.67
302.90 6.662
303.00 6.653
303.10 6.645
303.20 6.637
303.30 6.628
303.40 6.62
303.50 6.612
303.60 6.604
303.70 6.595
303.80 6.587
303.90 6.579
304.00 6.571
304.10 6.562
304.20 6.554
304.30 6.546
304.40 6.538
304.50 6.53
304.60 6.522
304.70 6.514
304.80 6.506
304.90 6.497
305.00 6.489
305.10 6.481
305.20 6.473
305.30 6.465
305.40 6.457
305.50 6.449
305.60 6.441
305.70 6.433
305.80 6.425
305.90 6.417
306.00 6.409
306.10 6.401
306.20 6.394
306.30 6.386
306.40 6.378
306.50 6.37
306.60 6.362
306.70 6.354
306.80 6.346
306.90 6.338
307.00 6.331
307.10 6.323
307.20 6.315
307.30 6.307
307.40 6.299
307.50 6.292
307.60 6.284
307.70 6.276
307.80 6.269
307.90 6.261
308.00 6.253
308.10 6.245
308.20 6.238
308.30 6.23
308.40 6.222
308.50 6.215
308.60 6.207
308.70 6.2
308.80 6.192
308.90 6.184
309.00 6.177
309.10 6.169
309.20 6.162
309.30 6.154
309.40 6.147
309.50 6.139
309.60 6.132
309.70 6.124
309.80 6.117
309.90 6.109
310.00 6.102
310.10 6.094
310.20 6.087
310.30 6.079
310.40 6.072
310.50 6.064
310.60 6.057
310.70 6.05
310.80 6.042
310.90 6.035
311.00 6.028
311.10 6.02
311.20 6.013
311.30 6.006
311.40 5.998
311.50 5.991
311.60 5.984
311.70 5.976
311.80 5.969
311.90 5.962
312.00 5.955
312.10 5.947
312.20 5.94
312.30 5.933
312.40 5.926
312.50 5.919
312.60 5.911
312.70 5.904
312.80 5.897
312.90 5.89
313.00 5.883
313.10 5.876
313.20 5.868
313.30 5.861
313.40 5.854
313.50 5.847
313.60 5.84
313.70 5.833
313.80 5.826
313.90 5.819
314.00 5.812
314.10 5.805
314.20 5.798
314.30 5.791
314.40 5.784
314.50 5.777
314.60 5.77
314.70 5.763
314.80 5.756
314.90 5.749
315.00 5.742
315.10 5.735
315.20 5.729
315.30 5.722
315.40 5.715
315.50 5.708
315.60 5.701
315.70 5.694
315.80 5.687
315.90 5.681
316.00 5.674
316.10 5.667
316.20 5.66
316.30 5.653
316.40 5.647
316.50 5.64
316.60 5.633
316.70 5.626
316.80 5.62
316.90 5.613
317.00 5.606
317.10 5.599
317.20 5.593
317.30 5.586
317.40 5.579
317.50 5.573
317.60 5.566
317.70 5.559
317.80 5.553
317.90 5.546
318.00 5.539
318.10 5.533
318.20 5.526
318.30 5.52
318.40 5.513
318.50 5.507
318.60 5.5
318.70 5.493
318.80 5.487
318.90 5.48
319.00 5.474
319.10 5.467
319.20 5.461
319.30 5.454
319.40 5.448
319.50 5.441
319.60 5.435
319.70 5.429
319.80 5.422
319.90 5.416
320.00 5.409
320.10 5.403
320.20 5.396
320.30 5.39
320.40 5.384
320.50 5.377
320.60 5.371
320.70 5.365
320.80 5.358
320.90 5.352
321.00 5.346
321.10 5.339
321.20 5.333
321.30 5.327
321.40 5.32
321.50 5.314
321.60 5.308
321.70 5.302
321.80 5.295
321.90 5.289
322.00 5.283
322.10 5.277
322.20 5.27
322.30 5.264
322.40 5.258
322.50 5.252
322.60 5.246
322.70 5.239
322.80 5.233
322.90 5.227
323.00 5.221
323.10 5.215
323.20 5.209
323.30 5.203
323.40 5.196
323.50 5.19
323.60 5.184
323.70 5.178
323.80 5.172
323.90 5.166
324.00 5.16
324.10 5.154
324.20 5.148
324.30 5.142
324.40 5.136
324.50 5.13
324.60 5.124
324.70 5.118
324.80 5.112
324.90 5.106
325.00 5.1
325.10 5.094
325.20 5.088
325.30 5.082
325.40 5.076
325.50 5.07
325.60 5.064
325.70 5.059
325.80 5.053
325.90 5.047
326.00 5.041
326.10 5.035
326.20 5.029
326.30 5.023
326.40 5.017
326.50 5.012
326.60 5.006
326.70 5
326.80 4.994
326.90 4.988
327.00 4.983
327.10 4.977
327.20 4.971
327.30 4.965
327.40 4.959
327.50 4.954
327.60 4.948
327.70 4.942
327.80 4.937
327.90 4.931
328.00 4.925
328.10 4.919
328.20 4.914
328.30 4.908
328.40 4.902
328.50 4.897
328.60 4.891
328.70 4.885
328.80 4.88
328.90 4.874
329.00 4.868
329.10 4.863
329.20 4.857
329.30 4.852
329.40 4.846
329.50 4.84
329.60 4.835
329.70 4.829
329.80 4.824
329.90 4.818
330.00 4.813
330.10 4.807
330.20 4.802
330.30 4.796
330.40 4.791
330.50 4.785
330.60 4.78
330.70 4.774
330.80 4.769
330.90 4.763
331.00 4.758
331.10 4.752
331.20 4.747
331.30 4.741
331.40 4.736
331.50 4.73
331.60 4.725
331.70 4.72
331.80 4.714
331.90 4.709
332.00 4.703
332.10 4.698
332.20 4.693
332.30 4.687
332.40 4.682
332.50 4.677
332.60 4.671
332.70 4.666
332.80 4.661
332.90 4.655
333.00 4.65
333.10 4.645
333.20 4.639
333.30 4.634
333.40 4.629
333.50 4.624
333.60 4.618
333.70 4.613
333.80 4.608
333.90 4.602
334.00 4.597
334.10 4.592
334.20 4.587
334.30 4.582
334.40 4.576
334.50 4.571
334.60 4.566
334.70 4.561
334.80 4.556
334.90 4.551
335.00 4.545
335.10 4.54
335.20 4.535
335.30 4.53
335.40 4.525
335.50 4.52
335.60 4.515
335.70 4.509
335.80 4.504
335.90 4.499
336.00 4.494
336.10 4.489
336.20 4.484
336.30 4.479
336.40 4.474
336.50 4.469
336.60 4.464
336.70 4.459
336.80 4.454
336.90 4.449
337.00 4.444
337.10 4.439
337.20 4.434
337.30 4.429
337.40 4.424
337.50 4.419
337.60 4.414
337.70 4.409
337.80 4.404
337.90 4.399
338.00 4.394
338.10 4.389
338.20 4.384
338.30 4.379
338.40 4.374
338.50 4.369
338.60 4.364
338.70 4.359
338.80 4.355
338.90 4.35
339.00 4.345
339.10 4.34
339.20 4.335
339.30 4.33
339.40 4.325
339.50 4.32
339.60 4.316
339.70 4.311
339.80 4.306
339.90 4.301
340.00 4.296
340.10 4.291
340.20 4.287
340.30 4.282
340.40 4.277
340.50 4.272
340.60 4.268
340.70 4.263
340.80 4.258
340.90 4.253
341.00 4.249
341.10 4.244
341.20 4.239
341.30 4.234
341.40 4.23
341.50 4.225
341.60 4.22
341.70 4.216
341.80 4.211
341.90 4.206
342.00 4.201
342.10 4.197
342.20 4.192
342.30 4.188
342.40 4.183
342.50 4.178
342.60 4.174
342.70 4.169
342.80 4.164
342.90 4.16
343.00 4.155
343.10 4.151
343.20 4.146
343.30 4.141
343.40 4.137
343.50 4.132
343.60 4.128
343.70 4.123
343.80 4.118
343.90 4.114
344.00 4.109
344.10 4.105
344.20 4.1
344.30 4.096
344.40 4.091
344.50 4.087
344.60 4.082
344.70 4.078
344.80 4.073
344.90 4.069
345.00 4.064
345.10 4.06
345.20 4.055
345.30 4.051
345.40 4.046
345.50 4.042
345.60 4.037
345.70 4.033
345.80 4.028
345.90 4.024
346.00 4.02
346.10 4.015
346.20 4.011
346.30 4.006
346.40 4.002
346.50 3.998
346.60 3.993
346.70 3.989
346.80 3.985
346.90 3.98
347.00 3.976
347.10 3.971
347.20 3.967
347.30 3.963
347.40 3.958
347.50 3.954
347.60 3.95
347.70 3.945
347.80 3.941
347.90 3.937
348.00 3.932
348.10 3.928
348.20 3.924
348.30 3.92
348.40 3.915
348.50 3.911
348.60 3.907
348.70 3.902
348.80 3.898
348.90 3.894
349.00 3.89
349.10 3.885
349.20 3.881
349.30 3.877
349.40 3.873
349.50 3.869
349.60 3.864
349.70 3.86
349.80 3.856
349.90 3.852
350.00 3.848
350.10 3.843
350.20 3.839
350.30 3.835
350.40 3.831
350.50 3.827
350.60 3.823
350.70 3.818
350.80 3.814
350.90 3.81
351.00 3.806
351.10 3.802
351.20 3.798
351.30 3.794
351.40 3.79
351.50 3.785
351.60 3.781
351.70 3.777
351.80 3.773
351.90 3.769
352.00 3.765
352.10 3.761
352.20 3.757
352.30 3.753
352.40 3.749
352.50 3.745
352.60 3.741
352.70 3.737
352.80 3.733
352.90 3.729
353.00 3.725
353.10 3.721
353.20 3.717
353.30 3.713
353.40 3.709
353.50 3.705
353.60 3.701
353.70 3.697
353.80 3.693
353.90 3.689
354.00 3.685
354.10 3.681
354.20 3.677
354.30 3.673
354.40 3.669
354.50 3.665
354.60 3.661
354.70 3.657
354.80 3.653
354.90 3.649
355.00 3.645
355.10 3.641
355.20 3.637
355.30 3.634
355.40 3.63
355.50 3.626
355.60 3.622
355.70 3.618
355.80 3.614
355.90 3.61
356.00 3.606
356.10 3.602
356.20 3.599
356.30 3.595
356.40 3.591
356.50 3.587
356.60 3.583
356.70 3.579
356.80 3.576
356.90 3.572
357.00 3.568
357.10 3.564
357.20 3.56
357.30 3.557
357.40 3.553
357.50 3.549
357.60 3.545
357.70 3.541
357.80 3.538
357.90 3.534
358.00 3.53
358.10 3.526
358.20 3.523
358.30 3.519
358.40 3.515
358.50 3.511
358.60 3.508
358.70 3.504
358.80 3.5
358.90 3.497
359.00 3.493
359.10 3.489
359.20 3.485
359.30 3.482
359.40 3.478
359.50 3.474
359.60 3.471
359.70 3.467
359.80 3.463
359.90 3.46
360.00 3.456
360.10 3.452
360.20 3.449
360.30 3.445
360.40 3.441
360.50 3.438
360.60 3.434
360.70 3.431
360.80 3.427
360.90 3.423
361.00 3.42
361.10 3.416
361.20 3.412
361.30 3.409
361.40 3.405
361.50 3.402
361.60 3.398
361.70 3.395
361.80 3.391
361.90 3.387
362.00 3.384
362.10 3.38
362.20 3.377
362.30 3.373
362.40 3.37
362.50 3.366
362.60 3.362
362.70 3.359
362.80 3.355
362.90 3.352
363.00 3.348
363.10 3.345
363.20 3.341
363.30 3.338
363.40 3.334
363.50 3.331
363.60 3.327
363.70 3.324
363.80 3.32
363.90 3.317
364.00 3.313
364.10 3.31
364.20 3.307
364.30 3.303
364.40 3.3
364.50 3.296
364.60 3.293
364.70 3.289
364.80 3.286
364.90 3.282
365.00 3.279
365.10 3.276
365.20 3.272
365.30 3.269
365.40 3.265
365.50 3.262
365.60 3.259
365.70 3.255
365.80 3.252
365.90 3.248
366.00 3.245
366.10 3.242
366.20 3.238
366.30 3.235
366.40 3.231
366.50 3.228
366.60 3.225
366.70 3.221
366.80 3.218
366.90 3.215
367.00 3.211
367.10 3.208
367.20 3.204
367.30 3.201
367.40 3.198
367.50 3.194
367.60 3.191
367.70 3.188
367.80 3.184
367.90 3.181
368.00 3.178
368.10 3.174
368.20 3.171
368.30 3.168
368.40 3.164
368.50 3.161
368.60 3.158
368.70 3.154
368.80 3.151
368.90 3.148
369.00 3.144
369.10 3.141
369.20 3.138
369.30 3.135
369.40 3.131
369.50 3.128
369.60 3.125
369.70 3.121
369.80 3.118
369.90 3.115
370.00 3.112
370.10 3.108
370.20 3.105
370.30 3.102
370.40 3.099
370.50 3.095
370.60 3.092
370.70 3.089
370.80 3.086
370.90 3.082
371.00 3.079
371.10 3.076
371.20 3.073
371.30 3.07
371.40 3.066
371.50 3.063
371.60 3.06
371.70 3.057
371.80 3.054
371.90 3.05
372.00 3.047
372.10 3.044
372.20 3.041
372.30 3.038
372.40 3.035
372.50 3.032
372.60 3.029
372.70 3.026
372.80 3.022
372.90 3.019
373.00 3.016
373.10 3.013
373.20 3.01
373.30 3.007
373.40 3.004
373.50 3.001
373.60 2.998
373.70 2.995
373.80 2.992
373.90 2.989
374.00 2.986
374.10 2.982
374.20 2.979
374.30 2.976
374.40 2.973
374.50 2.97
374.60 2.967
374.70 2.964
374.80 2.961
374.90 2.958
375.00 2.955
375.10 2.952
375.20 2.949
375.30 2.946
375.40 2.943
375.50 2.94
375.60 2.937
375.70 2.933
375.80 2.93
375.90 2.927
376.00 2.924
376.10 2.921
376.20 2.918
376.30 2.915
376.40 2.912
376.50 2.909
376.60 2.906
376.70 2.903
376.80 2.9
376.90 2.897
377.00 2.895
377.10 2.892
377.20 2.889
377.30 2.886
377.40 2.883
377.50 2.88
377.60 2.877
377.70 2.874
377.80 2.871
377.90 2.868
378.00 2.865
378.10 2.862
378.20 2.859
378.30 2.857
378.40 2.854
378.50 2.851
378.60 2.848
378.70 2.845
378.80 2.842
378.90 2.839
379.00 2.836
379.10 2.833
379.20 2.831
379.30 2.828
379.40 2.825
379.50 2.822
379.60 2.819
379.70 2.816
379.80 2.814
379.90 2.811
380.00 2.808
380.10 2.805
380.20 2.802
380.30 2.8
380.40 2.797
380.50 2.794
380.60 2.791
380.70 2.788
380.80 2.786
380.90 2.783
381.00 2.78
381.10 2.777
381.20 2.774
381.30 2.772
381.40 2.769
381.50 2.766
381.60 2.763
381.70 2.761
381.80 2.758
381.90 2.755
382.00 2.752
382.10 2.75
382.20 2.747
382.30 2.744
382.40 2.742
382.50 2.739
382.60 2.736
382.70 2.734
382.80 2.731
382.90 2.728
383.00 2.725
383.10 2.723
383.20 2.72
383.30 2.717
383.40 2.715
383.50 2.712
383.60 2.71
383.70 2.707
383.80 2.704
383.90 2.702
384.00 2.699
384.10 2.696
384.20 2.694
384.30 2.691
384.40 2.689
384.50 2.686
384.60 2.683
384.70 2.681
384.80 2.678
384.90 2.676
385.00 2.673
385.10 2.67
385.20 2.668
385.30 2.665
385.40 2.663
385.50 2.66
385.60 2.658
385.70 2.655
385.80 2.652
385.90 2.65
386.00 2.647
386.10 2.645
386.20 2.642
386.30 2.64
386.40 2.637
386.50 2.634
386.60 2.632
386.70 2.629
386.80 2.627
386.90 2.624
387.00 2.621
387.10 2.619
387.20 2.616
387.30 2.614
387.40 2.611
387.50 2.609
387.60 2.606
387.70 2.603
387.80 2.601
387.90 2.598
388.00 2.596
388.10 2.593
388.20 2.591
388.30 2.588
388.40 2.586
388.50 2.583
388.60 2.581
388.70 2.579
388.80 2.576
388.90 2.574
389.00 2.571
389.10 2.569
389.20 2.567
389.30 2.564
389.40 2.562
389.50 2.559
389.60 2.557
389.70 2.555
389.80 2.552
389.90 2.55
390.00 2.548
390.10 2.546
390.20 2.543
390.30 2.541
390.40 2.539
390.50 2.536
390.60 2.534
390.70 2.532
390.80 2.53
390.90 2.527
391.00 2.525
391.10 2.523
391.20 2.52
391.30 2.518
391.40 2.516
391.50 2.513
391.60 2.511
391.70 2.509
391.80 2.506
391.90 2.504
392.00 2.502
392.10 2.499
392.20 2.497
392.30 2.494
392.40 2.492
392.50 2.489
392.60 2.487
392.70 2.485
392.80 2.482
392.90 2.48
393.00 2.477
393.10 2.475
393.20 2.472
393.30 2.47
393.40 2.467
393.50 2.464
393.60 2.462
393.70 2.459
393.80 2.457
393.90 2.454
394.00 2.452
394.10 2.449
394.20 2.446
394.30 2.444
394.40 2.441
394.50 2.438
394.60 2.436
394.70 2.433
394.80 2.43
394.90 2.428
395.00 2.425
395.10 2.422
395.20 2.419
395.30 2.417
395.40 2.414
395.50 2.411
395.60 2.409
395.70 2.406
395.80 2.403
395.90 2.4
396.00 2.398
396.10 2.395
396.20 2.392
396.30 2.39
396.40 2.387
396.50 2.384
396.60 2.382
396.70 2.379
396.80 2.377
396.90 2.374
397.00 2.372
397.10 2.37
397.20 2.368
397.30 2.366
397.40 2.365
397.50 2.363
397.60 2.361
397.70 2.359
397.80 2.358
397.90 2.356
398.00 2.355
398.10 2.353
398.20 2.352
398.30 2.35
398.40 2.348
398.50 2.347
398.60 2.345
398.70 2.344
398.80 2.342
398.90 2.341
399.00 2.339
399.10 2.337
399.20 2.336
399.30 2.334
399.40 2.332
399.50 2.331
399.60 2.329
399.70 2.327
399.80 2.326
399.90 2.324
400.00 2.322
400.10 2.321
400.20 2.319
400.30 2.317
400.40 2.315
400.50 2.314
400.60 2.312
400.70 2.31
400.80 2.308
400.90 2.306
401.00 2.304
401.10 2.303
401.20 2.301
401.30 2.299
401.40 2.297
401.50 2.295
401.60 2.293
401.70 2.291
401.80 2.289
401.90 2.287
402.00 2.285
402.10 2.283
402.20 2.281
402.30 2.279
402.40 2.277
402.50 2.275
402.60 2.273
402.70 2.27
402.80 2.268
402.90 2.266
403.00 2.264
403.10 2.262
403.20 2.259
403.30 2.257
403.40 2.255
403.50 2.253
403.60 2.25
403.70 2.248
403.80 2.246
403.90 2.243
404.00 2.241
404.10 2.239
404.20 2.236
404.30 2.234
404.40 2.232
404.50 2.229
404.60 2.227
404.70 2.224
404.80 2.222
404.90 2.219
405.00 2.216
405.10 2.214
405.20 2.211
405.30 2.209
405.40 2.206
405.50 2.203
405.60 2.201
405.70 2.198
405.80 2.195
405.90 2.192
406.00 2.189
406.10 2.187
406.20 2.184
406.30 2.181
406.40 2.178
406.50 2.175
406.60 2.172
406.70 2.169
406.80 2.166
406.90 2.163
407.00 2.16
407.10 2.157
407.20 2.154
407.30 2.15
407.40 2.147
407.50 2.144
407.60 2.141
407.70 2.137
407.80 2.134
407.90 2.131
408.00 2.127
408.10 2.124
408.20 2.121
408.30 2.117
408.40 2.114
408.50 2.11
408.60 2.107
408.70 2.103
408.80 2.1
408.90 2.096
409.00 2.093
409.10 2.09
409.20 2.086
409.30 2.083
409.40 2.08
409.50 2.077
409.60 2.074
409.70 2.072
409.80 2.07
409.90 2.068
410.00 2.067
410.10 2.066
410.20 2.065
410.30 2.062
410.40 2.059
410.50 2.057
410.60 2.055
410.70 2.054
410.80 2.052
410.90 2.052
411.00 2.051
411.10 2.05
411.20 2.05
411.30 2.05
411.40 2.049
411.50 2.049
411.60 2.049
411.70 2.048
411.80 2.048
411.90 2.048
412.00 2.047
412.10 2.047
412.20 2.047
412.30 2.046
412.40 2.046
412.50 2.046
412.60 2.045
412.70 2.045
412.80 2.044
412.90 2.044
413.00 2.043
413.10 2.042
413.20 2.042
413.30 2.041
413.40 2.04
413.50 2.04
413.60 2.039
413.70 2.038
413.80 2.037
413.90 2.036
414.00 2.035
414.10 2.034
414.20 2.034
414.30 2.033
414.40 2.032
414.50 2.031
414.60 2.03
414.70 2.028
414.80 2.027
414.90 2.026
415.00 2.025
415.10 2.024
415.20 2.023
415.30 2.022
415.40 2.02
415.50 2.019
415.60 2.018
415.70 2.017
415.80 2.015
415.90 2.014
416.00 2.013
416.10 2.011
416.20 2.01
416.30 2.009
416.40 2.007
416.50 2.006
416.60 2.005
416.70 2.003
416.80 2.002
416.90 2
417.00 1.999
417.10 1.997
417.20 1.996
417.30 1.994
417.40 1.993
417.50 1.991
417.60 1.99
417.70 1.988
417.80 1.987
417.90 1.985
418.00 1.984
418.10 1.982
418.20 1.981
418.30 1.979
418.40 1.978
418.50 1.976
418.60 1.974
418.70 1.973
418.80 1.971
418.90 1.97
419.00 1.968
419.10 1.966
419.20 1.965
419.30 1.963
419.40 1.961
419.50 1.96
419.60 1.958
419.70 1.956
419.80 1.955
419.90 1.953
420.00 1.951
420.10 1.95
420.20 1.948
420.30 1.946
420.40 1.945
420.50 1.943
420.60 1.941
420.70 1.94
420.80 1.938
420.90 1.936
421.00 1.934
421.10 1.933
421.20 1.931
421.30 1.929
421.40 1.928
421.50 1.926
421.60 1.924
421.70 1.922
421.80 1.921
421.90 1.919
422.00 1.917
422.10 1.915
422.20 1.914
422.30 1.912
422.40 1.91
422.50 1.908
422.60 1.907
422.70 1.905
422.80 1.903
422.90 1.901
423.00 1.899
423.10 1.898
423.20 1.896
423.30 1.894
423.40 1.892
423.50 1.89
423.60 1.889
423.70 1.887
423.80 1.885
423.90 1.883
424.00 1.881
424.10 1.879
424.20 1.878
424.30 1.876
424.40 1.874
424.50 1.872
424.60 1.87
424.70 1.868
424.80 1.866
424.90 1.864
425.00 1.863
425.10 1.861
425.20 1.859
425.30 1.857
425.40 1.855
425.50 1.853
425.60 1.851
425.70 1.849
425.80 1.847
425.90 1.845
426.00 1.843
426.10 1.841
426.20 1.839
426.30 1.837
426.40 1.835
426.50 1.833
426.60 1.831
426.70 1.829
426.80 1.827
426.90 1.825
427.00 1.823
427.10 1.821
427.20 1.819
427.30 1.817
427.40 1.814
427.50 1.812
427.60 1.81
427.70 1.808
427.80 1.806
427.90 1.803
428.00 1.801
428.10 1.799
428.20 1.796
428.30 1.794
428.40 1.792
428.50 1.789
428.60 1.787
428.70 1.785
428.80 1.782
428.90 1.78
429.00 1.777
429.10 1.775
429.20 1.772
429.30 1.769
429.40 1.767
429.50 1.764
429.60 1.761
429.70 1.759
429.80 1.756
429.90 1.753
430.00 1.75
430.10 1.747
430.20 1.744
430.30 1.741
430.40 1.738
430.50 1.735
430.60 1.732
430.70 1.729
430.80 1.726
430.90 1.722
431.00 1.719
431.10 1.716
431.20 1.712
431.30 1.709
431.40 1.705
431.50 1.702
431.60 1.698
431.70 1.695
431.80 1.691
431.90 1.687
432.00 1.683
432.10 1.679
432.20 1.676
432.30 1.672
432.40 1.668
432.50 1.664
432.60 1.66
432.70 1.656
432.80 1.652
432.90 1.648
433.00 1.644
433.10 1.64
433.20 1.636
433.30 1.632
433.40 1.628
433.50 1.625
433.60 1.621
433.70 1.617
433.80 1.612
433.90 1.607
434.00 1.604
434.10 1.603
434.20 1.603
434.30 1.605
434.40 1.607
434.50 1.609
434.60 1.61
434.70 1.611
434.80 1.612
434.90 1.613
435.00 1.614
435.10 1.615
435.20 1.616
435.30 1.617
435.40 1.618
435.50 1.619
435.60 1.621
435.70 1.622
435.80 1.623
435.90 1.624
436.00 1.625
436.10 1.625
436.20 1.626
436.30 1.627
436.40 1.628
436.50 1.629
436.60 1.629
436.70 1.63
436.80 1.63
436.90 1.631
437.00 1.631
437.10 1.631
437.20 1.632
437.30 1.632
437.40 1.632
437.50 1.632
437.60 1.632
437.70 1.632
437.80 1.632
437.90 1.632
438.00 1.632
438.10 1.632
438.20 1.632
438.30 1.632
438.40 1.631
438.50 1.631
438.60 1.631
438.70 1.63
438.80 1.63
438.90 1.629
439.00 1.629
439.10 1.628
439.20 1.628
439.30 1.627
439.40 1.627
439.50 1.626
439.60 1.625
439.70 1.624
439.80 1.624
439.90 1.623
440.00 1.622
440.10 1.621
440.20 1.621
440.30 1.62
440.40 1.619
440.50 1.618
440.60 1.617
440.70 1.616
440.80 1.615
440.90 1.614
441.00 1.613
441.10 1.612
441.20 1.611
441.30 1.61
441.40 1.609
441.50 1.608
441.60 1.607
441.70 1.606
441.80 1.605
441.90 1.604
442.00 1.603
442.10 1.602
442.20 1.601
442.30 1.6
442.40 1.599
442.50 1.597
442.60 1.596
442.70 1.595
442.80 1.594
442.90 1.593
443.00 1.592
443.10 1.591
443.20 1.589
443.30 1.588
443.40 1.587
443.50 1.586
443.60 1.585
443.70 1.583
443.80 1.582
443.90 1.581
444.00 1.58
444.10 1.579
444.20 1.577
444.30 1.576
444.40 1.575
444.50 1.574
444.60 1.572
444.70 1.571
444.80 1.57
444.90 1.569
445.00 1.567
445.10 1.566
445.20 1.565
445.30 1.564
445.40 1.562
445.50 1.561
445.60 1.56
445.70 1.559
445.80 1.557
445.90 1.556
446.00 1.555
446.10 1.554
446.20 1.552
446.30 1.551
446.40 1.55
446.50 1.549
446.60 1.547
446.70 1.546
446.80 1.545
446.90 1.544
447.00 1.542
447.10 1.541
447.20 1.54
447.30 1.539
447.40 1.537
447.50 1.536
447.60 1.535
447.70 1.533
447.80 1.532
447.90 1.531
448.00 1.53
448.10 1.528
448.20 1.527
448.30 1.526
448.40 1.525
448.50 1.523
448.60 1.522
448.70 1.521
448.80 1.519
448.90 1.518
449.00 1.517
449.10 1.516
449.20 1.514
449.30 1.513
449.40 1.512
449.50 1.511
449.60 1.509
449.70 1.508
449.80 1.507
449.90 1.506
450.00 1.504
450.10 1.503
450.20 1.502
450.30 1.501
450.40 1.499
450.50 1.498
450.60 1.497
450.70 1.495
450.80 1.494
450.90 1.493
451.00 1.492
451.10 1.49
451.20 1.489
451.30 1.488
451.40 1.487
451.50 1.485
451.60 1.484
451.70 1.483
451.80 1.482
451.90 1.48
452.00 1.479
452.10 1.478
452.20 1.477
452.30 1.475
452.40 1.474
452.50 1.473
452.60 1.472
452.70 1.47
452.80 1.469
452.90 1.468
453.00 1.467
453.10 1.466
453.20 1.464
453.30 1.463
453.40 1.462
453.50 1.461
453.60 1.459
453.70 1.458
453.80 1.457
453.90 1.456
454.00 1.454
