# Version 2.1 - nm, norm@500 to 1, cut digits, bergeron_65000_75.dat_65000
# Wavelength(nm)  Flambda(ergs/cm^s/s/nm)
300.00 6.476
300.10 6.468
300.20 6.46
300.30 6.452
300.40 6.444
300.50 6.436
300.60 6.428
300.70 6.421
300.80 6.413
300.90 6.405
301.00 6.397
301.10 6.389
301.20 6.381
301.30 6.374
301.40 6.366
301.50 6.358
301.60 6.35
301.70 6.343
301.80 6.335
301.90 6.327
302.00 6.319
302.10 6.312
302.20 6.304
302.30 6.296
302.40 6.289
302.50 6.281
302.60 6.273
302.70 6.266
302.80 6.258
302.90 6.25
303.00 6.243
303.10 6.235
303.20 6.228
303.30 6.22
303.40 6.213
303.50 6.205
303.60 6.197
303.70 6.19
303.80 6.182
303.90 6.175
304.00 6.167
304.10 6.16
304.20 6.153
304.30 6.145
304.40 6.138
304.50 6.13
304.60 6.123
304.70 6.115
304.80 6.108
304.90 6.101
305.00 6.093
305.10 6.086
305.20 6.079
305.30 6.071
305.40 6.064
305.50 6.057
305.60 6.049
305.70 6.042
305.80 6.035
305.90 6.027
306.00 6.02
306.10 6.013
306.20 6.006
306.30 5.998
306.40 5.991
306.50 5.984
306.60 5.977
306.70 5.97
306.80 5.963
306.90 5.955
307.00 5.948
307.10 5.941
307.20 5.934
307.30 5.927
307.40 5.92
307.50 5.913
307.60 5.906
307.70 5.898
307.80 5.891
307.90 5.884
308.00 5.877
308.10 5.87
308.20 5.863
308.30 5.856
308.40 5.849
308.50 5.842
308.60 5.835
308.70 5.828
308.80 5.821
308.90 5.814
309.00 5.807
309.10 5.8
309.20 5.794
309.30 5.787
309.40 5.78
309.50 5.773
309.60 5.766
309.70 5.759
309.80 5.752
309.90 5.745
310.00 5.739
310.10 5.732
310.20 5.725
310.30 5.718
310.40 5.711
310.50 5.705
310.60 5.698
310.70 5.691
310.80 5.684
310.90 5.677
311.00 5.671
311.10 5.664
311.20 5.657
311.30 5.651
311.40 5.644
311.50 5.637
311.60 5.631
311.70 5.624
311.80 5.617
311.90 5.611
312.00 5.604
312.10 5.597
312.20 5.591
312.30 5.584
312.40 5.577
312.50 5.571
312.60 5.564
312.70 5.558
312.80 5.551
312.90 5.545
313.00 5.538
313.10 5.532
313.20 5.525
313.30 5.519
313.40 5.512
313.50 5.506
313.60 5.499
313.70 5.493
313.80 5.486
313.90 5.48
314.00 5.473
314.10 5.467
314.20 5.46
314.30 5.454
314.40 5.448
314.50 5.441
314.60 5.435
314.70 5.428
314.80 5.422
314.90 5.416
315.00 5.409
315.10 5.403
315.20 5.397
315.30 5.39
315.40 5.384
315.50 5.378
315.60 5.371
315.70 5.365
315.80 5.359
315.90 5.353
316.00 5.346
316.10 5.34
316.20 5.334
316.30 5.328
316.40 5.321
316.50 5.315
316.60 5.309
316.70 5.303
316.80 5.297
316.90 5.29
317.00 5.284
317.10 5.278
317.20 5.272
317.30 5.266
317.40 5.26
317.50 5.254
317.60 5.248
317.70 5.241
317.80 5.235
317.90 5.229
318.00 5.223
318.10 5.217
318.20 5.211
318.30 5.205
318.40 5.199
318.50 5.193
318.60 5.187
318.70 5.181
318.80 5.175
318.90 5.169
319.00 5.163
319.10 5.157
319.20 5.151
319.30 5.145
319.40 5.139
319.50 5.133
319.60 5.127
319.70 5.121
319.80 5.115
319.90 5.109
320.00 5.103
320.10 5.098
320.20 5.092
320.30 5.086
320.40 5.08
320.50 5.074
320.60 5.068
320.70 5.062
320.80 5.057
320.90 5.051
321.00 5.045
321.10 5.039
321.20 5.033
321.30 5.028
321.40 5.022
321.50 5.016
321.60 5.01
321.70 5.004
321.80 4.999
321.90 4.993
322.00 4.987
322.10 4.982
322.20 4.976
322.30 4.97
322.40 4.964
322.50 4.959
322.60 4.953
322.70 4.947
322.80 4.942
322.90 4.936
323.00 4.93
323.10 4.925
323.20 4.919
323.30 4.913
323.40 4.908
323.50 4.902
323.60 4.897
323.70 4.891
323.80 4.885
323.90 4.88
324.00 4.874
324.10 4.869
324.20 4.863
324.30 4.858
324.40 4.852
324.50 4.847
324.60 4.841
324.70 4.836
324.80 4.83
324.90 4.825
325.00 4.819
325.10 4.814
325.20 4.808
325.30 4.803
325.40 4.797
325.50 4.792
325.60 4.786
325.70 4.781
325.80 4.775
325.90 4.77
326.00 4.765
326.10 4.759
326.20 4.754
326.30 4.748
326.40 4.743
326.50 4.738
326.60 4.732
326.70 4.727
326.80 4.721
326.90 4.716
327.00 4.711
327.10 4.705
327.20 4.7
327.30 4.695
327.40 4.69
327.50 4.684
327.60 4.679
327.70 4.674
327.80 4.668
327.90 4.663
328.00 4.658
328.10 4.653
328.20 4.647
328.30 4.642
328.40 4.637
328.50 4.632
328.60 4.626
328.70 4.621
328.80 4.616
328.90 4.611
329.00 4.606
329.10 4.6
329.20 4.595
329.30 4.59
329.40 4.585
329.50 4.58
329.60 4.575
329.70 4.57
329.80 4.564
329.90 4.559
330.00 4.554
330.10 4.549
330.20 4.544
330.30 4.539
330.40 4.534
330.50 4.529
330.60 4.524
330.70 4.519
330.80 4.514
330.90 4.509
331.00 4.503
331.10 4.498
331.20 4.493
331.30 4.488
331.40 4.483
331.50 4.478
331.60 4.473
331.70 4.468
331.80 4.463
331.90 4.458
332.00 4.453
332.10 4.448
332.20 4.443
332.30 4.438
332.40 4.434
332.50 4.429
332.60 4.424
332.70 4.419
332.80 4.414
332.90 4.409
333.00 4.404
333.10 4.399
333.20 4.394
333.30 4.389
333.40 4.384
333.50 4.38
333.60 4.375
333.70 4.37
333.80 4.365
333.90 4.36
334.00 4.355
334.10 4.35
334.20 4.346
334.30 4.341
334.40 4.336
334.50 4.331
334.60 4.326
334.70 4.322
334.80 4.317
334.90 4.312
335.00 4.307
335.10 4.303
335.20 4.298
335.30 4.293
335.40 4.288
335.50 4.284
335.60 4.279
335.70 4.274
335.80 4.269
335.90 4.265
336.00 4.26
336.10 4.255
336.20 4.251
336.30 4.246
336.40 4.241
336.50 4.237
336.60 4.232
336.70 4.227
336.80 4.223
336.90 4.218
337.00 4.213
337.10 4.209
337.20 4.204
337.30 4.199
337.40 4.195
337.50 4.19
337.60 4.186
337.70 4.181
337.80 4.176
337.90 4.172
338.00 4.167
338.10 4.163
338.20 4.158
338.30 4.154
338.40 4.149
338.50 4.144
338.60 4.14
338.70 4.135
338.80 4.131
338.90 4.126
339.00 4.122
339.10 4.117
339.20 4.113
339.30 4.108
339.40 4.104
339.50 4.099
339.60 4.095
339.70 4.09
339.80 4.086
339.90 4.081
340.00 4.077
340.10 4.073
340.20 4.068
340.30 4.064
340.40 4.059
340.50 4.055
340.60 4.05
340.70 4.046
340.80 4.042
340.90 4.037
341.00 4.033
341.10 4.028
341.20 4.024
341.30 4.02
341.40 4.015
341.50 4.011
341.60 4.007
341.70 4.002
341.80 3.998
341.90 3.994
342.00 3.989
342.10 3.985
342.20 3.981
342.30 3.976
342.40 3.972
342.50 3.968
342.60 3.963
342.70 3.959
342.80 3.955
342.90 3.951
343.00 3.946
343.10 3.942
343.20 3.938
343.30 3.933
343.40 3.929
343.50 3.925
343.60 3.921
343.70 3.916
343.80 3.912
343.90 3.908
344.00 3.904
344.10 3.9
344.20 3.895
344.30 3.891
344.40 3.887
344.50 3.883
344.60 3.879
344.70 3.874
344.80 3.87
344.90 3.866
345.00 3.862
345.10 3.858
345.20 3.854
345.30 3.85
345.40 3.845
345.50 3.841
345.60 3.837
345.70 3.833
345.80 3.829
345.90 3.825
346.00 3.821
346.10 3.817
346.20 3.812
346.30 3.808
346.40 3.804
346.50 3.8
346.60 3.796
346.70 3.792
346.80 3.788
346.90 3.784
347.00 3.78
347.10 3.776
347.20 3.772
347.30 3.768
347.40 3.764
347.50 3.76
347.60 3.756
347.70 3.752
347.80 3.748
347.90 3.744
348.00 3.74
348.10 3.736
348.20 3.732
348.30 3.728
348.40 3.724
348.50 3.72
348.60 3.716
348.70 3.712
348.80 3.708
348.90 3.704
349.00 3.7
349.10 3.696
349.20 3.692
349.30 3.688
349.40 3.684
349.50 3.68
349.60 3.677
349.70 3.673
349.80 3.669
349.90 3.665
350.00 3.661
350.10 3.657
350.20 3.653
350.30 3.649
350.40 3.645
350.50 3.642
350.60 3.638
350.70 3.634
350.80 3.63
350.90 3.626
351.00 3.622
351.10 3.618
351.20 3.615
351.30 3.611
351.40 3.607
351.50 3.603
351.60 3.599
351.70 3.596
351.80 3.592
351.90 3.588
352.00 3.584
352.10 3.58
352.20 3.577
352.30 3.573
352.40 3.569
352.50 3.565
352.60 3.562
352.70 3.558
352.80 3.554
352.90 3.55
353.00 3.547
353.10 3.543
353.20 3.539
353.30 3.535
353.40 3.532
353.50 3.528
353.60 3.524
353.70 3.521
353.80 3.517
353.90 3.513
354.00 3.509
354.10 3.506
354.20 3.502
354.30 3.498
354.40 3.495
354.50 3.491
354.60 3.487
354.70 3.484
354.80 3.48
354.90 3.476
355.00 3.473
355.10 3.469
355.20 3.466
355.30 3.462
355.40 3.458
355.50 3.455
355.60 3.451
355.70 3.447
355.80 3.444
355.90 3.44
356.00 3.437
356.10 3.433
356.20 3.429
356.30 3.426
356.40 3.422
356.50 3.419
356.60 3.415
356.70 3.412
356.80 3.408
356.90 3.405
357.00 3.401
357.10 3.397
357.20 3.394
357.30 3.39
357.40 3.387
357.50 3.383
357.60 3.38
357.70 3.376
357.80 3.373
357.90 3.369
358.00 3.366
358.10 3.362
358.20 3.359
358.30 3.355
358.40 3.352
358.50 3.348
358.60 3.345
358.70 3.341
358.80 3.338
358.90 3.334
359.00 3.331
359.10 3.328
359.20 3.324
359.30 3.321
359.40 3.317
359.50 3.314
359.60 3.31
359.70 3.307
359.80 3.304
359.90 3.3
360.00 3.297
360.10 3.293
360.20 3.29
360.30 3.286
360.40 3.283
360.50 3.28
360.60 3.276
360.70 3.273
360.80 3.27
360.90 3.266
361.00 3.263
361.10 3.259
361.20 3.256
361.30 3.253
361.40 3.249
361.50 3.246
361.60 3.243
361.70 3.239
361.80 3.236
361.90 3.233
362.00 3.229
362.10 3.226
362.20 3.223
362.30 3.219
362.40 3.216
362.50 3.213
362.60 3.21
362.70 3.206
362.80 3.203
362.90 3.2
363.00 3.196
363.10 3.193
363.20 3.19
363.30 3.187
363.40 3.183
363.50 3.18
363.60 3.177
363.70 3.174
363.80 3.17
363.90 3.167
364.00 3.164
364.10 3.161
364.20 3.157
364.30 3.154
364.40 3.151
364.50 3.148
364.60 3.144
364.70 3.141
364.80 3.138
364.90 3.135
365.00 3.132
365.10 3.128
365.20 3.125
365.30 3.122
365.40 3.119
365.50 3.116
365.60 3.113
365.70 3.109
365.80 3.106
365.90 3.103
366.00 3.1
366.10 3.097
366.20 3.093
366.30 3.09
366.40 3.087
366.50 3.084
366.60 3.081
366.70 3.077
366.80 3.074
366.90 3.071
367.00 3.068
367.10 3.064
367.20 3.061
367.30 3.058
367.40 3.055
367.50 3.052
367.60 3.049
367.70 3.045
367.80 3.042
367.90 3.039
368.00 3.036
368.10 3.033
368.20 3.03
368.30 3.026
368.40 3.023
368.50 3.02
368.60 3.017
368.70 3.014
368.80 3.011
368.90 3.008
369.00 3.004
369.10 3.001
369.20 2.998
369.30 2.995
369.40 2.992
369.50 2.989
369.60 2.986
369.70 2.983
369.80 2.98
369.90 2.976
370.00 2.973
370.10 2.97
370.20 2.967
370.30 2.964
370.40 2.961
370.50 2.958
370.60 2.955
370.70 2.952
370.80 2.949
370.90 2.946
371.00 2.943
371.10 2.94
371.20 2.937
371.30 2.934
371.40 2.931
371.50 2.928
371.60 2.925
371.70 2.922
371.80 2.919
371.90 2.916
372.00 2.913
372.10 2.91
372.20 2.907
372.30 2.904
372.40 2.901
372.50 2.898
372.60 2.895
372.70 2.892
372.80 2.889
372.90 2.886
373.00 2.883
373.10 2.88
373.20 2.877
373.30 2.874
373.40 2.872
373.50 2.869
373.60 2.866
373.70 2.863
373.80 2.86
373.90 2.857
374.00 2.854
374.10 2.851
374.20 2.848
374.30 2.846
374.40 2.843
374.50 2.84
374.60 2.837
374.70 2.834
374.80 2.831
374.90 2.829
375.00 2.826
375.10 2.823
375.20 2.82
375.30 2.817
375.40 2.815
375.50 2.812
375.60 2.809
375.70 2.806
375.80 2.803
375.90 2.801
376.00 2.798
376.10 2.795
376.20 2.792
376.30 2.79
376.40 2.787
376.50 2.784
376.60 2.782
376.70 2.779
376.80 2.776
376.90 2.773
377.00 2.771
377.10 2.768
377.20 2.766
377.30 2.763
377.40 2.76
377.50 2.758
377.60 2.755
377.70 2.753
377.80 2.75
377.90 2.748
378.00 2.745
378.10 2.742
378.20 2.74
378.30 2.737
378.40 2.735
378.50 2.732
378.60 2.729
378.70 2.727
378.80 2.724
378.90 2.722
379.00 2.719
379.10 2.716
379.20 2.714
379.30 2.711
379.40 2.709
379.50 2.706
379.60 2.704
379.70 2.701
379.80 2.698
379.90 2.696
380.00 2.693
380.10 2.691
380.20 2.689
380.30 2.687
380.40 2.685
380.50 2.682
380.60 2.68
380.70 2.678
380.80 2.676
380.90 2.673
381.00 2.671
381.10 2.669
381.20 2.666
381.30 2.664
381.40 2.661
381.50 2.659
381.60 2.656
381.70 2.654
381.80 2.651
381.90 2.648
382.00 2.646
382.10 2.643
382.20 2.64
382.30 2.637
382.40 2.634
382.50 2.631
382.60 2.628
382.70 2.625
382.80 2.622
382.90 2.618
383.00 2.615
383.10 2.612
383.20 2.609
383.30 2.606
383.40 2.604
383.50 2.601
383.60 2.599
383.70 2.597
383.80 2.596
383.90 2.594
384.00 2.593
384.10 2.592
384.20 2.591
384.30 2.589
384.40 2.588
384.50 2.587
384.60 2.585
384.70 2.584
384.80 2.582
384.90 2.581
385.00 2.579
385.10 2.577
385.20 2.575
385.30 2.574
385.40 2.572
385.50 2.569
385.60 2.567
385.70 2.565
385.80 2.563
385.90 2.56
386.00 2.557
386.10 2.555
386.20 2.552
386.30 2.549
386.40 2.546
386.50 2.543
386.60 2.54
386.70 2.536
386.80 2.533
386.90 2.529
387.00 2.525
387.10 2.522
387.20 2.518
387.30 2.514
387.40 2.509
387.50 2.505
387.60 2.501
387.70 2.496
387.80 2.492
387.90 2.487
388.00 2.483
388.10 2.478
388.20 2.473
388.30 2.469
388.40 2.464
388.50 2.46
388.60 2.455
388.70 2.452
388.80 2.449
388.90 2.447
389.00 2.445
389.10 2.444
389.20 2.443
389.30 2.443
389.40 2.444
389.50 2.444
389.60 2.445
389.70 2.446
389.80 2.446
389.90 2.447
390.00 2.448
390.10 2.448
390.20 2.449
390.30 2.449
390.40 2.449
390.50 2.45
390.60 2.45
390.70 2.45
390.80 2.45
390.90 2.449
391.00 2.449
391.10 2.448
391.20 2.448
391.30 2.447
391.40 2.446
391.50 2.445
391.60 2.444
391.70 2.443
391.80 2.442
391.90 2.441
392.00 2.439
392.10 2.438
392.20 2.436
392.30 2.434
392.40 2.432
392.50 2.43
392.60 2.428
392.70 2.425
392.80 2.423
392.90 2.42
393.00 2.418
393.10 2.415
393.20 2.412
393.30 2.409
393.40 2.406
393.50 2.402
393.60 2.399
393.70 2.395
393.80 2.392
393.90 2.388
394.00 2.384
394.10 2.38
394.20 2.375
394.30 2.371
394.40 2.366
394.50 2.361
394.60 2.356
394.70 2.351
394.80 2.345
394.90 2.34
395.00 2.334
395.10 2.328
395.20 2.322
395.30 2.316
395.40 2.309
395.50 2.302
395.60 2.295
395.70 2.288
395.80 2.281
395.90 2.274
396.00 2.266
396.10 2.258
396.20 2.251
396.30 2.243
396.40 2.235
396.50 2.227
396.60 2.219
396.70 2.211
396.80 2.203
396.90 2.196
397.00 2.19
397.10 2.192
397.20 2.195
397.30 2.199
397.40 2.203
397.50 2.207
397.60 2.211
397.70 2.215
397.80 2.219
397.90 2.223
398.00 2.227
398.10 2.23
398.20 2.234
398.30 2.237
398.40 2.24
398.50 2.243
398.60 2.246
398.70 2.249
398.80 2.251
398.90 2.253
399.00 2.256
399.10 2.258
399.20 2.259
399.30 2.261
399.40 2.262
399.50 2.263
399.60 2.264
399.70 2.265
399.80 2.266
399.90 2.267
400.00 2.267
400.10 2.267
400.20 2.268
400.30 2.268
400.40 2.268
400.50 2.268
400.60 2.267
400.70 2.267
400.80 2.267
400.90 2.266
401.00 2.266
401.10 2.265
401.20 2.264
401.30 2.263
401.40 2.262
401.50 2.261
401.60 2.26
401.70 2.259
401.80 2.258
401.90 2.257
402.00 2.255
402.10 2.254
402.20 2.252
402.30 2.251
402.40 2.249
402.50 2.248
402.60 2.246
402.70 2.244
402.80 2.243
402.90 2.241
403.00 2.239
403.10 2.237
403.20 2.235
403.30 2.233
403.40 2.231
403.50 2.229
403.60 2.227
403.70 2.225
403.80 2.223
403.90 2.22
404.00 2.218
404.10 2.216
404.20 2.213
404.30 2.211
404.40 2.208
404.50 2.206
404.60 2.203
404.70 2.201
404.80 2.198
404.90 2.195
405.00 2.192
405.10 2.189
405.20 2.186
405.30 2.183
405.40 2.18
405.50 2.177
405.60 2.174
405.70 2.17
405.80 2.167
405.90 2.164
406.00 2.16
406.10 2.156
406.20 2.152
406.30 2.148
406.40 2.144
406.50 2.14
406.60 2.136
406.70 2.132
406.80 2.127
406.90 2.122
407.00 2.117
407.10 2.112
407.20 2.107
407.30 2.102
407.40 2.096
407.50 2.09
407.60 2.084
407.70 2.078
407.80 2.072
407.90 2.065
408.00 2.058
408.10 2.051
408.20 2.043
408.30 2.036
408.40 2.028
408.50 2.019
408.60 2.011
408.70 2.002
408.80 1.993
408.90 1.983
409.00 1.974
409.10 1.963
409.20 1.953
409.30 1.943
409.40 1.932
409.50 1.921
409.60 1.909
409.70 1.898
409.80 1.888
409.90 1.877
410.00 1.871
410.10 1.868
410.20 1.87
410.30 1.866
410.40 1.867
410.50 1.872
410.60 1.879
410.70 1.887
410.80 1.895
410.90 1.902
411.00 1.91
411.10 1.917
411.20 1.924
411.30 1.931
411.40 1.937
411.50 1.943
411.60 1.949
411.70 1.954
411.80 1.959
411.90 1.964
412.00 1.968
412.10 1.972
412.20 1.976
412.30 1.98
412.40 1.983
412.50 1.986
412.60 1.989
412.70 1.991
412.80 1.993
412.90 1.996
413.00 1.997
413.10 1.999
413.20 2.001
413.30 2.002
413.40 2.003
413.50 2.004
413.60 2.005
413.70 2.006
413.80 2.006
413.90 2.007
414.00 2.007
414.10 2.007
414.20 2.007
414.30 2.007
414.40 2.007
414.50 2.007
414.60 2.007
414.70 2.006
414.80 2.006
414.90 2.005
415.00 2.005
415.10 2.004
415.20 2.003
415.30 2.003
415.40 2.002
415.50 2.001
415.60 2
415.70 1.999
415.80 1.998
415.90 1.997
416.00 1.996
416.10 1.995
416.20 1.994
416.30 1.993
416.40 1.991
416.50 1.99
416.60 1.989
416.70 1.988
416.80 1.986
416.90 1.985
417.00 1.984
417.10 1.982
417.20 1.981
417.30 1.98
417.40 1.978
417.50 1.977
417.60 1.975
417.70 1.974
417.80 1.972
417.90 1.971
418.00 1.969
418.10 1.968
418.20 1.966
418.30 1.965
418.40 1.963
418.50 1.962
418.60 1.96
418.70 1.959
418.80 1.957
418.90 1.955
419.00 1.954
419.10 1.952
419.20 1.951
419.30 1.949
419.40 1.947
419.50 1.946
419.60 1.944
419.70 1.943
419.80 1.941
419.90 1.939
420.00 1.938
420.10 1.936
420.20 1.934
420.30 1.933
420.40 1.931
420.50 1.929
420.60 1.928
420.70 1.926
420.80 1.924
420.90 1.923
421.00 1.921
421.10 1.919
421.20 1.918
421.30 1.916
421.40 1.914
421.50 1.913
421.60 1.911
421.70 1.909
421.80 1.907
421.90 1.906
422.00 1.904
422.10 1.902
422.20 1.901
422.30 1.899
422.40 1.897
422.50 1.895
422.60 1.894
422.70 1.892
422.80 1.89
422.90 1.889
423.00 1.887
423.10 1.885
423.20 1.883
423.30 1.882
423.40 1.88
423.50 1.878
423.60 1.876
423.70 1.875
423.80 1.873
423.90 1.871
424.00 1.869
424.10 1.868
424.20 1.866
424.30 1.864
424.40 1.862
424.50 1.861
424.60 1.859
424.70 1.857
424.80 1.855
424.90 1.853
425.00 1.852
425.10 1.85
425.20 1.848
425.30 1.846
425.40 1.844
425.50 1.842
425.60 1.841
425.70 1.839
425.80 1.837
425.90 1.835
426.00 1.833
426.10 1.831
426.20 1.829
426.30 1.827
426.40 1.826
426.50 1.824
426.60 1.822
426.70 1.82
426.80 1.818
426.90 1.816
427.00 1.814
427.10 1.812
427.20 1.81
427.30 1.808
427.40 1.806
427.50 1.804
427.60 1.802
427.70 1.799
427.80 1.797
427.90 1.795
428.00 1.793
428.10 1.791
428.20 1.789
428.30 1.786
428.40 1.784
428.50 1.782
428.60 1.779
428.70 1.777
428.80 1.774
428.90 1.772
429.00 1.769
429.10 1.767
429.20 1.764
429.30 1.761
429.40 1.759
429.50 1.756
429.60 1.753
429.70 1.75
429.80 1.747
429.90 1.744
430.00 1.74
430.10 1.737
430.20 1.734
430.30 1.73
430.40 1.727
430.50 1.723
430.60 1.719
430.70 1.715
430.80 1.711
430.90 1.707
431.00 1.702
431.10 1.697
431.20 1.693
431.30 1.688
431.40 1.682
431.50 1.677
431.60 1.671
431.70 1.665
431.80 1.659
431.90 1.653
432.00 1.646
432.10 1.639
432.20 1.632
432.30 1.624
432.40 1.617
432.50 1.608
432.60 1.6
432.70 1.591
432.80 1.582
432.90 1.572
433.00 1.562
433.10 1.552
433.20 1.542
433.30 1.531
433.40 1.52
433.50 1.51
433.60 1.499
433.70 1.488
433.80 1.478
433.90 1.468
434.00 1.46
434.10 1.459
434.20 1.465
434.30 1.473
434.40 1.48
434.50 1.488
434.60 1.497
434.70 1.505
434.80 1.513
434.90 1.521
435.00 1.529
435.10 1.536
435.20 1.543
435.30 1.55
435.40 1.556
435.50 1.562
435.60 1.568
435.70 1.573
435.80 1.578
435.90 1.583
436.00 1.587
436.10 1.591
436.20 1.595
436.30 1.598
436.40 1.601
436.50 1.604
436.60 1.607
436.70 1.609
436.80 1.611
436.90 1.613
437.00 1.615
437.10 1.617
437.20 1.618
437.30 1.619
437.40 1.621
437.50 1.621
437.60 1.622
437.70 1.623
437.80 1.623
437.90 1.624
438.00 1.624
438.10 1.624
438.20 1.625
438.30 1.625
438.40 1.625
438.50 1.625
438.60 1.624
438.70 1.624
438.80 1.624
438.90 1.623
439.00 1.623
439.10 1.623
439.20 1.622
439.30 1.621
439.40 1.621
439.50 1.62
439.60 1.62
439.70 1.619
439.80 1.618
439.90 1.617
440.00 1.616
440.10 1.616
440.20 1.615
440.30 1.614
440.40 1.613
440.50 1.612
440.60 1.611
440.70 1.61
440.80 1.609
440.90 1.608
441.00 1.607
441.10 1.606
441.20 1.605
441.30 1.604
441.40 1.603
441.50 1.602
441.60 1.601
441.70 1.599
441.80 1.598
441.90 1.597
442.00 1.596
442.10 1.595
442.20 1.594
442.30 1.593
442.40 1.591
442.50 1.59
442.60 1.589
442.70 1.588
442.80 1.587
442.90 1.585
443.00 1.584
443.10 1.583
443.20 1.582
443.30 1.581
443.40 1.579
443.50 1.578
443.60 1.577
443.70 1.576
443.80 1.574
443.90 1.573
444.00 1.572
444.10 1.571
444.20 1.569
444.30 1.568
444.40 1.567
444.50 1.566
444.60 1.564
444.70 1.563
444.80 1.562
444.90 1.561
445.00 1.559
445.10 1.558
445.20 1.557
445.30 1.556
445.40 1.554
445.50 1.553
445.60 1.552
445.70 1.551
445.80 1.549
445.90 1.548
446.00 1.547
446.10 1.545
446.20 1.544
446.30 1.543
446.40 1.542
446.50 1.54
446.60 1.539
446.70 1.538
446.80 1.537
446.90 1.535
447.00 1.534
447.10 1.533
447.20 1.531
447.30 1.53
447.40 1.529
447.50 1.528
447.60 1.526
447.70 1.525
447.80 1.524
447.90 1.523
448.00 1.521
448.10 1.52
448.20 1.519
448.30 1.518
448.40 1.516
448.50 1.515
448.60 1.514
448.70 1.513
448.80 1.511
448.90 1.51
449.00 1.509
449.10 1.507
449.20 1.506
449.30 1.505
449.40 1.504
449.50 1.502
449.60 1.501
449.70 1.5
449.80 1.499
449.90 1.497
450.00 1.496
450.10 1.495
450.20 1.494
450.30 1.492
450.40 1.491
450.50 1.49
450.60 1.489
450.70 1.487
450.80 1.486
450.90 1.485
451.00 1.484
451.10 1.482
451.20 1.481
451.30 1.48
451.40 1.479
451.50 1.478
451.60 1.476
451.70 1.475
451.80 1.474
451.90 1.473
452.00 1.471
452.10 1.47
452.20 1.469
452.30 1.468
452.40 1.466
452.50 1.465
452.60 1.464
452.70 1.463
452.80 1.462
452.90 1.46
453.00 1.459
453.10 1.458
453.20 1.457
453.30 1.455
453.40 1.454
453.50 1.453
453.60 1.452
453.70 1.451
453.80 1.449
453.90 1.448
454.00 1.447
