# Version 2.1 - nm, norm@500 to 1, cut digits, bergeron_85000_75.dat_85000
# Wavelength(nm)  Flambda(ergs/cm^s/s/nm)
300.00 6.711
300.10 6.702
300.20 6.694
300.30 6.686
300.40 6.677
300.50 6.669
300.60 6.661
300.70 6.652
300.80 6.644
300.90 6.636
301.00 6.628
301.10 6.619
301.20 6.611
301.30 6.603
301.40 6.595
301.50 6.587
301.60 6.578
301.70 6.57
301.80 6.562
301.90 6.554
302.00 6.546
302.10 6.538
302.20 6.53
302.30 6.522
302.40 6.514
302.50 6.506
302.60 6.498
302.70 6.49
302.80 6.482
302.90 6.474
303.00 6.466
303.10 6.458
303.20 6.45
303.30 6.442
303.40 6.434
303.50 6.426
303.60 6.418
303.70 6.41
303.80 6.402
303.90 6.394
304.00 6.386
304.10 6.379
304.20 6.371
304.30 6.363
304.40 6.355
304.50 6.347
304.60 6.34
304.70 6.332
304.80 6.324
304.90 6.316
305.00 6.308
305.10 6.301
305.20 6.293
305.30 6.285
305.40 6.278
305.50 6.27
305.60 6.262
305.70 6.255
305.80 6.247
305.90 6.239
306.00 6.232
306.10 6.224
306.20 6.216
306.30 6.209
306.40 6.201
306.50 6.194
306.60 6.186
306.70 6.179
306.80 6.171
306.90 6.164
307.00 6.156
307.10 6.149
307.20 6.141
307.30 6.134
307.40 6.126
307.50 6.119
307.60 6.111
307.70 6.104
307.80 6.096
307.90 6.089
308.00 6.082
308.10 6.074
308.20 6.067
308.30 6.06
308.40 6.052
308.50 6.045
308.60 6.038
308.70 6.03
308.80 6.023
308.90 6.016
309.00 6.008
309.10 6.001
309.20 5.994
309.30 5.987
309.40 5.979
309.50 5.972
309.60 5.965
309.70 5.958
309.80 5.95
309.90 5.943
310.00 5.936
310.10 5.929
310.20 5.922
310.30 5.915
310.40 5.908
310.50 5.9
310.60 5.893
310.70 5.886
310.80 5.879
310.90 5.872
311.00 5.865
311.10 5.858
311.20 5.851
311.30 5.844
311.40 5.837
311.50 5.83
311.60 5.823
311.70 5.816
311.80 5.809
311.90 5.802
312.00 5.795
312.10 5.788
312.20 5.781
312.30 5.774
312.40 5.767
312.50 5.76
312.60 5.753
312.70 5.746
312.80 5.74
312.90 5.733
313.00 5.726
313.10 5.719
313.20 5.712
313.30 5.705
313.40 5.699
313.50 5.692
313.60 5.685
313.70 5.678
313.80 5.671
313.90 5.665
314.00 5.658
314.10 5.651
314.20 5.644
314.30 5.638
314.40 5.631
314.50 5.624
314.60 5.618
314.70 5.611
314.80 5.604
314.90 5.598
315.00 5.591
315.10 5.584
315.20 5.578
315.30 5.571
315.40 5.564
315.50 5.558
315.60 5.551
315.70 5.545
315.80 5.538
315.90 5.531
316.00 5.525
316.10 5.518
316.20 5.512
316.30 5.505
316.40 5.499
316.50 5.492
316.60 5.486
316.70 5.479
316.80 5.473
316.90 5.466
317.00 5.46
317.10 5.453
317.20 5.447
317.30 5.441
317.40 5.434
317.50 5.428
317.60 5.421
317.70 5.415
317.80 5.409
317.90 5.402
318.00 5.396
318.10 5.389
318.20 5.383
318.30 5.377
318.40 5.37
318.50 5.364
318.60 5.358
318.70 5.352
318.80 5.345
318.90 5.339
319.00 5.333
319.10 5.326
319.20 5.32
319.30 5.314
319.40 5.308
319.50 5.301
319.60 5.295
319.70 5.289
319.80 5.283
319.90 5.277
320.00 5.27
320.10 5.264
320.20 5.258
320.30 5.252
320.40 5.246
320.50 5.24
320.60 5.234
320.70 5.227
320.80 5.221
320.90 5.215
321.00 5.209
321.10 5.203
321.20 5.197
321.30 5.191
321.40 5.185
321.50 5.179
321.60 5.173
321.70 5.167
321.80 5.161
321.90 5.155
322.00 5.149
322.10 5.143
322.20 5.137
322.30 5.131
322.40 5.125
322.50 5.119
322.60 5.113
322.70 5.107
322.80 5.101
322.90 5.095
323.00 5.089
323.10 5.083
323.20 5.077
323.30 5.072
323.40 5.066
323.50 5.06
323.60 5.054
323.70 5.048
323.80 5.042
323.90 5.036
324.00 5.031
324.10 5.025
324.20 5.019
324.30 5.013
324.40 5.007
324.50 5.002
324.60 4.996
324.70 4.99
324.80 4.984
324.90 4.979
325.00 4.973
325.10 4.967
325.20 4.961
325.30 4.956
325.40 4.95
325.50 4.944
325.60 4.938
325.70 4.933
325.80 4.927
325.90 4.921
326.00 4.916
326.10 4.91
326.20 4.904
326.30 4.899
326.40 4.893
326.50 4.888
326.60 4.882
326.70 4.876
326.80 4.871
326.90 4.865
327.00 4.86
327.10 4.854
327.20 4.848
327.30 4.843
327.40 4.837
327.50 4.832
327.60 4.826
327.70 4.821
327.80 4.815
327.90 4.81
328.00 4.804
328.10 4.799
328.20 4.793
328.30 4.788
328.40 4.782
328.50 4.777
328.60 4.771
328.70 4.766
328.80 4.761
328.90 4.755
329.00 4.75
329.10 4.744
329.20 4.739
329.30 4.733
329.40 4.728
329.50 4.723
329.60 4.717
329.70 4.712
329.80 4.707
329.90 4.701
330.00 4.696
330.10 4.691
330.20 4.685
330.30 4.68
330.40 4.675
330.50 4.669
330.60 4.664
330.70 4.659
330.80 4.653
330.90 4.648
331.00 4.643
331.10 4.638
331.20 4.632
331.30 4.627
331.40 4.622
331.50 4.617
331.60 4.611
331.70 4.606
331.80 4.601
331.90 4.596
332.00 4.59
332.10 4.585
332.20 4.58
332.30 4.575
332.40 4.57
332.50 4.565
332.60 4.56
332.70 4.554
332.80 4.549
332.90 4.544
333.00 4.539
333.10 4.534
333.20 4.529
333.30 4.524
333.40 4.519
333.50 4.513
333.60 4.508
333.70 4.503
333.80 4.498
333.90 4.493
334.00 4.488
334.10 4.483
334.20 4.478
334.30 4.473
334.40 4.468
334.50 4.463
334.60 4.458
334.70 4.453
334.80 4.448
334.90 4.443
335.00 4.438
335.10 4.433
335.20 4.428
335.30 4.423
335.40 4.418
335.50 4.413
335.60 4.408
335.70 4.403
335.80 4.398
335.90 4.393
336.00 4.389
336.10 4.384
336.20 4.379
336.30 4.374
336.40 4.369
336.50 4.364
336.60 4.359
336.70 4.354
336.80 4.35
336.90 4.345
337.00 4.34
337.10 4.335
337.20 4.33
337.30 4.325
337.40 4.321
337.50 4.316
337.60 4.311
337.70 4.306
337.80 4.301
337.90 4.297
338.00 4.292
338.10 4.287
338.20 4.282
338.30 4.278
338.40 4.273
338.50 4.268
338.60 4.263
338.70 4.259
338.80 4.254
338.90 4.249
339.00 4.244
339.10 4.24
339.20 4.235
339.30 4.23
339.40 4.226
339.50 4.221
339.60 4.216
339.70 4.212
339.80 4.207
339.90 4.202
340.00 4.198
340.10 4.193
340.20 4.188
340.30 4.184
340.40 4.179
340.50 4.175
340.60 4.17
340.70 4.165
340.80 4.161
340.90 4.156
341.00 4.152
341.10 4.147
341.20 4.142
341.30 4.138
341.40 4.133
341.50 4.129
341.60 4.124
341.70 4.12
341.80 4.115
341.90 4.111
342.00 4.106
342.10 4.102
342.20 4.097
342.30 4.093
342.40 4.088
342.50 4.084
342.60 4.079
342.70 4.075
342.80 4.07
342.90 4.066
343.00 4.061
343.10 4.057
343.20 4.052
343.30 4.048
343.40 4.044
343.50 4.039
343.60 4.035
343.70 4.03
343.80 4.026
343.90 4.021
344.00 4.017
344.10 4.013
344.20 4.008
344.30 4.004
344.40 4
344.50 3.995
344.60 3.991
344.70 3.986
344.80 3.982
344.90 3.978
345.00 3.973
345.10 3.969
345.20 3.965
345.30 3.96
345.40 3.956
345.50 3.952
345.60 3.948
345.70 3.943
345.80 3.939
345.90 3.935
346.00 3.93
346.10 3.926
346.20 3.922
346.30 3.918
346.40 3.913
346.50 3.909
346.60 3.905
346.70 3.901
346.80 3.896
346.90 3.892
347.00 3.888
347.10 3.884
347.20 3.88
347.30 3.875
347.40 3.871
347.50 3.867
347.60 3.863
347.70 3.859
347.80 3.854
347.90 3.85
348.00 3.846
348.10 3.842
348.20 3.838
348.30 3.834
348.40 3.829
348.50 3.825
348.60 3.821
348.70 3.817
348.80 3.813
348.90 3.809
349.00 3.805
349.10 3.801
349.20 3.797
349.30 3.793
349.40 3.788
349.50 3.784
349.60 3.78
349.70 3.776
349.80 3.772
349.90 3.768
350.00 3.764
350.10 3.76
350.20 3.756
350.30 3.752
350.40 3.748
350.50 3.744
350.60 3.74
350.70 3.736
350.80 3.732
350.90 3.728
351.00 3.724
351.10 3.72
351.20 3.716
351.30 3.712
351.40 3.708
351.50 3.704
351.60 3.7
351.70 3.696
351.80 3.692
351.90 3.688
352.00 3.684
352.10 3.68
352.20 3.676
352.30 3.672
352.40 3.668
352.50 3.664
352.60 3.661
352.70 3.657
352.80 3.653
352.90 3.649
353.00 3.645
353.10 3.641
353.20 3.637
353.30 3.633
353.40 3.629
353.50 3.626
353.60 3.622
353.70 3.618
353.80 3.614
353.90 3.61
354.00 3.606
354.10 3.602
354.20 3.599
354.30 3.595
354.40 3.591
354.50 3.587
354.60 3.583
354.70 3.58
354.80 3.576
354.90 3.572
355.00 3.568
355.10 3.564
355.20 3.561
355.30 3.557
355.40 3.553
355.50 3.549
355.60 3.546
355.70 3.542
355.80 3.538
355.90 3.534
356.00 3.531
356.10 3.527
356.20 3.523
356.30 3.519
356.40 3.516
356.50 3.512
356.60 3.508
356.70 3.505
356.80 3.501
356.90 3.497
357.00 3.494
357.10 3.49
357.20 3.486
357.30 3.482
357.40 3.479
357.50 3.475
357.60 3.471
357.70 3.468
357.80 3.464
357.90 3.461
358.00 3.457
358.10 3.453
358.20 3.45
358.30 3.446
358.40 3.442
358.50 3.439
358.60 3.435
358.70 3.432
358.80 3.428
358.90 3.424
359.00 3.421
359.10 3.417
359.20 3.414
359.30 3.41
359.40 3.406
359.50 3.403
359.60 3.399
359.70 3.396
359.80 3.392
359.90 3.389
360.00 3.385
360.10 3.381
360.20 3.378
360.30 3.374
360.40 3.371
360.50 3.367
360.60 3.364
360.70 3.36
360.80 3.357
360.90 3.353
361.00 3.35
361.10 3.346
361.20 3.343
361.30 3.339
361.40 3.336
361.50 3.332
361.60 3.329
361.70 3.325
361.80 3.322
361.90 3.319
362.00 3.315
362.10 3.312
362.20 3.308
362.30 3.305
362.40 3.301
362.50 3.298
362.60 3.294
362.70 3.291
362.80 3.288
362.90 3.284
363.00 3.281
363.10 3.277
363.20 3.274
363.30 3.271
363.40 3.267
363.50 3.264
363.60 3.26
363.70 3.257
363.80 3.254
363.90 3.25
364.00 3.247
364.10 3.244
364.20 3.24
364.30 3.237
364.40 3.233
364.50 3.23
364.60 3.227
364.70 3.223
364.80 3.22
364.90 3.217
365.00 3.214
365.10 3.21
365.20 3.207
365.30 3.204
365.40 3.2
365.50 3.197
365.60 3.194
365.70 3.19
365.80 3.187
365.90 3.184
366.00 3.181
366.10 3.177
366.20 3.174
366.30 3.171
366.40 3.167
366.50 3.164
366.60 3.161
366.70 3.157
366.80 3.154
366.90 3.151
367.00 3.147
367.10 3.144
367.20 3.141
367.30 3.138
367.40 3.134
367.50 3.131
367.60 3.128
367.70 3.124
367.80 3.121
367.90 3.118
368.00 3.115
368.10 3.111
368.20 3.108
368.30 3.105
368.40 3.102
368.50 3.098
368.60 3.095
368.70 3.092
368.80 3.089
368.90 3.086
369.00 3.082
369.10 3.079
369.20 3.076
369.30 3.073
369.40 3.069
369.50 3.066
369.60 3.063
369.70 3.06
369.80 3.057
369.90 3.053
370.00 3.05
370.10 3.047
370.20 3.044
370.30 3.041
370.40 3.038
370.50 3.035
370.60 3.031
370.70 3.028
370.80 3.025
370.90 3.022
371.00 3.019
371.10 3.016
371.20 3.013
371.30 3.009
371.40 3.006
371.50 3.003
371.60 3
371.70 2.997
371.80 2.994
371.90 2.991
372.00 2.988
372.10 2.985
372.20 2.982
372.30 2.979
372.40 2.976
372.50 2.972
372.60 2.969
372.70 2.966
372.80 2.963
372.90 2.96
373.00 2.957
373.10 2.954
373.20 2.951
373.30 2.948
373.40 2.945
373.50 2.942
373.60 2.939
373.70 2.936
373.80 2.933
373.90 2.93
374.00 2.927
374.10 2.924
374.20 2.921
374.30 2.918
374.40 2.915
374.50 2.912
374.60 2.909
374.70 2.907
374.80 2.904
374.90 2.901
375.00 2.898
375.10 2.895
375.20 2.892
375.30 2.889
375.40 2.886
375.50 2.883
375.60 2.88
375.70 2.877
375.80 2.874
375.90 2.871
376.00 2.869
376.10 2.866
376.20 2.863
376.30 2.86
376.40 2.857
376.50 2.854
376.60 2.851
376.70 2.849
376.80 2.846
376.90 2.843
377.00 2.84
377.10 2.837
377.20 2.835
377.30 2.832
377.40 2.829
377.50 2.826
377.60 2.824
377.70 2.821
377.80 2.818
377.90 2.815
378.00 2.813
378.10 2.81
378.20 2.807
378.30 2.804
378.40 2.802
378.50 2.799
378.60 2.796
378.70 2.793
378.80 2.791
378.90 2.788
379.00 2.785
379.10 2.783
379.20 2.78
379.30 2.777
379.40 2.775
379.50 2.772
379.60 2.769
379.70 2.767
379.80 2.764
379.90 2.761
380.00 2.759
380.10 2.756
380.20 2.754
380.30 2.751
380.40 2.749
380.50 2.746
380.60 2.744
380.70 2.741
380.80 2.739
380.90 2.736
381.00 2.734
381.10 2.731
381.20 2.728
381.30 2.726
381.40 2.723
381.50 2.721
381.60 2.718
381.70 2.715
381.80 2.713
381.90 2.71
382.00 2.707
382.10 2.704
382.20 2.702
382.30 2.699
382.40 2.696
382.50 2.693
382.60 2.69
382.70 2.687
382.80 2.684
382.90 2.681
383.00 2.679
383.10 2.676
383.20 2.673
383.30 2.67
383.40 2.667
383.50 2.665
383.60 2.663
383.70 2.66
383.80 2.658
383.90 2.656
384.00 2.654
384.10 2.652
384.20 2.651
384.30 2.649
384.40 2.647
384.50 2.645
384.60 2.643
384.70 2.641
384.80 2.639
384.90 2.637
385.00 2.635
385.10 2.633
385.20 2.63
385.30 2.628
385.40 2.626
385.50 2.624
385.60 2.621
385.70 2.619
385.80 2.616
385.90 2.614
386.00 2.611
386.10 2.608
386.20 2.606
386.30 2.603
386.40 2.6
386.50 2.597
386.60 2.594
386.70 2.591
386.80 2.588
386.90 2.584
387.00 2.581
387.10 2.578
387.20 2.574
387.30 2.571
387.40 2.567
387.50 2.564
387.60 2.56
387.70 2.556
387.80 2.553
387.90 2.549
388.00 2.545
388.10 2.541
388.20 2.538
388.30 2.534
388.40 2.53
388.50 2.527
388.60 2.523
388.70 2.52
388.80 2.518
388.90 2.515
389.00 2.513
389.10 2.511
389.20 2.51
389.30 2.509
389.40 2.508
389.50 2.508
389.60 2.507
389.70 2.506
389.80 2.506
389.90 2.505
390.00 2.505
390.10 2.504
390.20 2.503
390.30 2.502
390.40 2.502
390.50 2.501
390.60 2.5
390.70 2.499
390.80 2.498
390.90 2.497
391.00 2.496
391.10 2.494
391.20 2.493
391.30 2.492
391.40 2.49
391.50 2.489
391.60 2.487
391.70 2.485
391.80 2.484
391.90 2.482
392.00 2.48
392.10 2.478
392.20 2.476
392.30 2.474
392.40 2.472
392.50 2.469
392.60 2.467
392.70 2.465
392.80 2.462
392.90 2.46
393.00 2.457
393.10 2.454
393.20 2.451
393.30 2.448
393.40 2.445
393.50 2.442
393.60 2.439
393.70 2.436
393.80 2.433
393.90 2.429
394.00 2.426
394.10 2.422
394.20 2.418
394.30 2.414
394.40 2.41
394.50 2.406
394.60 2.402
394.70 2.398
394.80 2.393
394.90 2.389
395.00 2.384
395.10 2.38
395.20 2.375
395.30 2.37
395.40 2.364
395.50 2.359
395.60 2.354
395.70 2.348
395.80 2.343
395.90 2.337
396.00 2.331
396.10 2.326
396.20 2.32
396.30 2.314
396.40 2.308
396.50 2.302
396.60 2.296
396.70 2.29
396.80 2.284
396.90 2.279
397.00 2.274
397.10 2.274
397.20 2.275
397.30 2.277
397.40 2.279
397.50 2.281
397.60 2.283
397.70 2.284
397.80 2.286
397.90 2.288
398.00 2.29
398.10 2.291
398.20 2.293
398.30 2.294
398.40 2.296
398.50 2.297
398.60 2.298
398.70 2.299
398.80 2.3
398.90 2.301
399.00 2.301
399.10 2.302
399.20 2.302
399.30 2.302
399.40 2.303
399.50 2.303
399.60 2.303
399.70 2.302
399.80 2.302
399.90 2.302
400.00 2.302
400.10 2.301
400.20 2.3
400.30 2.3
400.40 2.299
400.50 2.298
400.60 2.297
400.70 2.296
400.80 2.295
400.90 2.294
401.00 2.293
401.10 2.292
401.20 2.291
401.30 2.29
401.40 2.288
401.50 2.287
401.60 2.285
401.70 2.284
401.80 2.282
401.90 2.281
402.00 2.279
402.10 2.278
402.20 2.276
402.30 2.274
402.40 2.272
402.50 2.271
402.60 2.269
402.70 2.267
402.80 2.265
402.90 2.263
403.00 2.261
403.10 2.259
403.20 2.257
403.30 2.255
403.40 2.253
403.50 2.251
403.60 2.249
403.70 2.246
403.80 2.244
403.90 2.242
404.00 2.24
404.10 2.237
404.20 2.235
404.30 2.233
404.40 2.23
404.50 2.228
404.60 2.225
404.70 2.223
404.80 2.22
404.90 2.218
405.00 2.215
405.10 2.212
405.20 2.209
405.30 2.207
405.40 2.204
405.50 2.201
405.60 2.198
405.70 2.195
405.80 2.192
405.90 2.189
406.00 2.185
406.10 2.182
406.20 2.179
406.30 2.175
406.40 2.172
406.50 2.168
406.60 2.165
406.70 2.161
406.80 2.157
406.90 2.153
407.00 2.149
407.10 2.144
407.20 2.14
407.30 2.136
407.40 2.131
407.50 2.126
407.60 2.121
407.70 2.116
407.80 2.111
407.90 2.106
408.00 2.1
408.10 2.094
408.20 2.088
408.30 2.082
408.40 2.076
408.50 2.069
408.60 2.062
408.70 2.056
408.80 2.048
408.90 2.041
409.00 2.033
409.10 2.026
409.20 2.018
409.30 2.009
409.40 2.001
409.50 1.993
409.60 1.984
409.70 1.976
409.80 1.968
409.90 1.96
410.00 1.956
410.10 1.955
410.20 1.956
410.30 1.951
410.40 1.95
410.50 1.952
410.60 1.957
410.70 1.962
410.80 1.967
410.90 1.971
411.00 1.976
411.10 1.981
411.20 1.985
411.30 1.989
411.40 1.993
411.50 1.997
411.60 2.001
411.70 2.004
411.80 2.007
411.90 2.01
412.00 2.013
412.10 2.015
412.20 2.017
412.30 2.019
412.40 2.021
412.50 2.022
412.60 2.024
412.70 2.025
412.80 2.026
412.90 2.027
413.00 2.028
413.10 2.029
413.20 2.029
413.30 2.03
413.40 2.03
413.50 2.03
413.60 2.03
413.70 2.03
413.80 2.03
413.90 2.03
414.00 2.029
414.10 2.029
414.20 2.028
414.30 2.028
414.40 2.027
414.50 2.027
414.60 2.026
414.70 2.025
414.80 2.024
414.90 2.023
415.00 2.022
415.10 2.021
415.20 2.02
415.30 2.019
415.40 2.018
415.50 2.017
415.60 2.016
415.70 2.015
415.80 2.013
415.90 2.012
416.00 2.011
416.10 2.009
416.20 2.008
416.30 2.007
416.40 2.005
416.50 2.004
416.60 2.002
416.70 2.001
416.80 1.999
416.90 1.998
417.00 1.996
417.10 1.995
417.20 1.993
417.30 1.992
417.40 1.99
417.50 1.989
417.60 1.987
417.70 1.986
417.80 1.984
417.90 1.982
418.00 1.981
418.10 1.979
418.20 1.978
418.30 1.976
418.40 1.974
418.50 1.973
418.60 1.971
418.70 1.969
418.80 1.968
418.90 1.966
419.00 1.964
419.10 1.963
419.20 1.961
419.30 1.959
419.40 1.958
419.50 1.956
419.60 1.954
419.70 1.953
419.80 1.951
419.90 1.949
420.00 1.948
420.10 1.946
420.20 1.944
420.30 1.943
420.40 1.941
420.50 1.939
420.60 1.937
420.70 1.936
420.80 1.934
420.90 1.932
421.00 1.931
421.10 1.929
421.20 1.927
421.30 1.925
421.40 1.924
421.50 1.922
421.60 1.92
421.70 1.918
421.80 1.917
421.90 1.915
422.00 1.913
422.10 1.912
422.20 1.91
422.30 1.908
422.40 1.906
422.50 1.905
422.60 1.903
422.70 1.901
422.80 1.899
422.90 1.898
423.00 1.896
423.10 1.894
423.20 1.892
423.30 1.891
423.40 1.889
423.50 1.887
423.60 1.885
423.70 1.884
423.80 1.882
423.90 1.88
424.00 1.878
424.10 1.877
424.20 1.875
424.30 1.873
424.40 1.871
424.50 1.87
424.60 1.868
424.70 1.866
424.80 1.864
424.90 1.863
425.00 1.861
425.10 1.859
425.20 1.857
425.30 1.855
425.40 1.854
425.50 1.852
425.60 1.85
425.70 1.848
425.80 1.846
425.90 1.845
426.00 1.843
426.10 1.841
426.20 1.839
426.30 1.837
426.40 1.835
426.50 1.834
426.60 1.832
426.70 1.83
426.80 1.828
426.90 1.826
427.00 1.824
427.10 1.822
427.20 1.82
427.30 1.818
427.40 1.816
427.50 1.814
427.60 1.812
427.70 1.81
427.80 1.808
427.90 1.806
428.00 1.804
428.10 1.802
428.20 1.8
428.30 1.798
428.40 1.796
428.50 1.794
428.60 1.792
428.70 1.789
428.80 1.787
428.90 1.785
429.00 1.783
429.10 1.78
429.20 1.778
429.30 1.775
429.40 1.773
429.50 1.771
429.60 1.768
429.70 1.765
429.80 1.763
429.90 1.76
430.00 1.757
430.10 1.754
430.20 1.751
430.30 1.748
430.40 1.745
430.50 1.742
430.60 1.739
430.70 1.735
430.80 1.732
430.90 1.728
431.00 1.724
431.10 1.72
431.20 1.716
431.30 1.712
431.40 1.708
431.50 1.703
431.60 1.699
431.70 1.694
431.80 1.689
431.90 1.684
432.00 1.678
432.10 1.672
432.20 1.666
432.30 1.66
432.40 1.654
432.50 1.647
432.60 1.64
432.70 1.633
432.80 1.626
432.90 1.618
433.00 1.61
433.10 1.602
433.20 1.594
433.30 1.586
433.40 1.577
433.50 1.568
433.60 1.56
433.70 1.552
433.80 1.543
433.90 1.535
434.00 1.528
434.10 1.527
434.20 1.532
434.30 1.537
434.40 1.543
434.50 1.549
434.60 1.555
434.70 1.56
434.80 1.566
434.90 1.572
435.00 1.577
435.10 1.583
435.20 1.588
435.30 1.592
435.40 1.597
435.50 1.601
435.60 1.605
435.70 1.609
435.80 1.612
435.90 1.615
436.00 1.618
436.10 1.621
436.20 1.623
436.30 1.626
436.40 1.628
436.50 1.629
436.60 1.631
436.70 1.632
436.80 1.634
436.90 1.635
437.00 1.636
437.10 1.637
437.20 1.637
437.30 1.638
437.40 1.638
437.50 1.638
437.60 1.639
437.70 1.639
437.80 1.639
437.90 1.639
438.00 1.639
438.10 1.638
438.20 1.638
438.30 1.638
438.40 1.637
438.50 1.637
438.60 1.636
438.70 1.636
438.80 1.635
438.90 1.634
439.00 1.634
439.10 1.633
439.20 1.632
439.30 1.631
439.40 1.63
439.50 1.63
439.60 1.629
439.70 1.628
439.80 1.627
439.90 1.626
440.00 1.625
440.10 1.624
440.20 1.623
440.30 1.622
440.40 1.621
440.50 1.62
440.60 1.618
440.70 1.617
440.80 1.616
440.90 1.615
441.00 1.614
441.10 1.613
441.20 1.612
441.30 1.61
441.40 1.609
441.50 1.608
441.60 1.607
441.70 1.606
441.80 1.604
441.90 1.603
442.00 1.602
442.10 1.601
442.20 1.6
442.30 1.598
442.40 1.597
442.50 1.596
442.60 1.595
442.70 1.593
442.80 1.592
442.90 1.591
443.00 1.59
443.10 1.588
443.20 1.587
443.30 1.586
443.40 1.584
443.50 1.583
443.60 1.582
443.70 1.581
443.80 1.579
443.90 1.578
444.00 1.577
444.10 1.575
444.20 1.574
444.30 1.573
444.40 1.572
444.50 1.57
444.60 1.569
444.70 1.568
444.80 1.566
444.90 1.565
445.00 1.564
445.10 1.563
445.20 1.561
445.30 1.56
445.40 1.559
445.50 1.557
445.60 1.556
445.70 1.555
445.80 1.553
445.90 1.552
446.00 1.551
446.10 1.55
446.20 1.548
446.30 1.547
446.40 1.546
446.50 1.544
446.60 1.543
446.70 1.542
446.80 1.54
446.90 1.539
447.00 1.538
447.10 1.537
447.20 1.535
447.30 1.534
447.40 1.533
447.50 1.531
447.60 1.53
447.70 1.529
447.80 1.528
447.90 1.526
448.00 1.525
448.10 1.524
448.20 1.522
448.30 1.521
448.40 1.52
448.50 1.519
448.60 1.517
448.70 1.516
448.80 1.515
448.90 1.513
449.00 1.512
449.10 1.511
449.20 1.51
449.30 1.508
449.40 1.507
449.50 1.506
449.60 1.505
449.70 1.503
449.80 1.502
449.90 1.501
450.00 1.499
450.10 1.498
450.20 1.497
450.30 1.496
450.40 1.494
450.50 1.493
450.60 1.492
450.70 1.491
450.80 1.489
450.90 1.488
451.00 1.487
451.10 1.486
451.20 1.484
451.30 1.483
451.40 1.482
451.50 1.481
451.60 1.479
451.70 1.478
451.80 1.477
451.90 1.476
452.00 1.474
452.10 1.473
452.20 1.472
452.30 1.471
452.40 1.469
452.50 1.468
452.60 1.467
452.70 1.466
452.80 1.464
452.90 1.463
453.00 1.462
453.10 1.461
453.20 1.46
453.30 1.458
453.40 1.457
453.50 1.456
453.60 1.455
453.70 1.453
453.80 1.452
453.90 1.451
454.00 1.45
454.10 1.448
