# Version 2.1 - nm, norm@500 to 1, cut digits, bergeron_100000_85.dat_100000
# Wavelength(nm)  Flambda(ergs/cm^s/s/nm)
300.00 6.844
300.10 6.836
300.20 6.827
300.30 6.818
300.40 6.81
300.50 6.801
300.60 6.793
300.70 6.784
300.80 6.776
300.90 6.767
301.00 6.759
301.10 6.75
301.20 6.742
301.30 6.733
301.40 6.725
301.50 6.717
301.60 6.708
301.70 6.7
301.80 6.692
301.90 6.683
302.00 6.675
302.10 6.666
302.20 6.658
302.30 6.65
302.40 6.642
302.50 6.633
302.60 6.625
302.70 6.617
302.80 6.609
302.90 6.6
303.00 6.592
303.10 6.584
303.20 6.576
303.30 6.568
303.40 6.559
303.50 6.551
303.60 6.543
303.70 6.535
303.80 6.527
303.90 6.519
304.00 6.511
304.10 6.503
304.20 6.495
304.30 6.487
304.40 6.478
304.50 6.47
304.60 6.462
304.70 6.454
304.80 6.446
304.90 6.438
305.00 6.431
305.10 6.423
305.20 6.415
305.30 6.407
305.40 6.399
305.50 6.391
305.60 6.383
305.70 6.375
305.80 6.367
305.90 6.359
306.00 6.352
306.10 6.344
306.20 6.336
306.30 6.328
306.40 6.32
306.50 6.313
306.60 6.305
306.70 6.297
306.80 6.289
306.90 6.282
307.00 6.274
307.10 6.266
307.20 6.258
307.30 6.251
307.40 6.243
307.50 6.235
307.60 6.228
307.70 6.22
307.80 6.213
307.90 6.205
308.00 6.197
308.10 6.19
308.20 6.182
308.30 6.175
308.40 6.167
308.50 6.159
308.60 6.152
308.70 6.144
308.80 6.137
308.90 6.129
309.00 6.122
309.10 6.114
309.20 6.107
309.30 6.1
309.40 6.092
309.50 6.085
309.60 6.077
309.70 6.07
309.80 6.062
309.90 6.055
310.00 6.048
310.10 6.04
310.20 6.033
310.30 6.026
310.40 6.018
310.50 6.011
310.60 6.004
310.70 5.996
310.80 5.989
310.90 5.982
311.00 5.975
311.10 5.967
311.20 5.96
311.30 5.953
311.40 5.946
311.50 5.938
311.60 5.931
311.70 5.924
311.80 5.917
311.90 5.91
312.00 5.903
312.10 5.895
312.20 5.888
312.30 5.881
312.40 5.874
312.50 5.867
312.60 5.86
312.70 5.853
312.80 5.846
312.90 5.839
313.00 5.832
313.10 5.825
313.20 5.818
313.30 5.811
313.40 5.804
313.50 5.797
313.60 5.79
313.70 5.783
313.80 5.776
313.90 5.769
314.00 5.762
314.10 5.755
314.20 5.748
314.30 5.741
314.40 5.734
314.50 5.727
314.60 5.72
314.70 5.714
314.80 5.707
314.90 5.7
315.00 5.693
315.10 5.686
315.20 5.679
315.30 5.673
315.40 5.666
315.50 5.659
315.60 5.652
315.70 5.646
315.80 5.639
315.90 5.632
316.00 5.625
316.10 5.619
316.20 5.612
316.30 5.605
316.40 5.598
316.50 5.592
316.60 5.585
316.70 5.578
316.80 5.572
316.90 5.565
317.00 5.559
317.10 5.552
317.20 5.545
317.30 5.539
317.40 5.532
317.50 5.526
317.60 5.519
317.70 5.512
317.80 5.506
317.90 5.499
318.00 5.493
318.10 5.486
318.20 5.48
318.30 5.473
318.40 5.467
318.50 5.46
318.60 5.454
318.70 5.447
318.80 5.441
318.90 5.434
319.00 5.428
319.10 5.422
319.20 5.415
319.30 5.409
319.40 5.402
319.50 5.396
319.60 5.39
319.70 5.383
319.80 5.377
319.90 5.37
320.00 5.364
320.10 5.358
320.20 5.351
320.30 5.345
320.40 5.339
320.50 5.333
320.60 5.326
320.70 5.32
320.80 5.314
320.90 5.307
321.00 5.301
321.10 5.295
321.20 5.289
321.30 5.282
321.40 5.276
321.50 5.27
321.60 5.264
321.70 5.258
321.80 5.252
321.90 5.245
322.00 5.239
322.10 5.233
322.20 5.227
322.30 5.221
322.40 5.215
322.50 5.209
322.60 5.202
322.70 5.196
322.80 5.19
322.90 5.184
323.00 5.178
323.10 5.172
323.20 5.166
323.30 5.16
323.40 5.154
323.50 5.148
323.60 5.142
323.70 5.136
323.80 5.13
323.90 5.124
324.00 5.118
324.10 5.112
324.20 5.106
324.30 5.1
324.40 5.094
324.50 5.088
324.60 5.082
324.70 5.076
324.80 5.07
324.90 5.065
325.00 5.059
325.10 5.053
325.20 5.047
325.30 5.041
325.40 5.035
325.50 5.029
325.60 5.023
325.70 5.018
325.80 5.012
325.90 5.006
326.00 5
326.10 4.994
326.20 4.989
326.30 4.983
326.40 4.977
326.50 4.971
326.60 4.966
326.70 4.96
326.80 4.954
326.90 4.948
327.00 4.943
327.10 4.937
327.20 4.931
327.30 4.925
327.40 4.92
327.50 4.914
327.60 4.908
327.70 4.903
327.80 4.897
327.90 4.891
328.00 4.886
328.10 4.88
328.20 4.875
328.30 4.869
328.40 4.863
328.50 4.858
328.60 4.852
328.70 4.847
328.80 4.841
328.90 4.835
329.00 4.83
329.10 4.824
329.20 4.819
329.30 4.813
329.40 4.808
329.50 4.802
329.60 4.797
329.70 4.791
329.80 4.786
329.90 4.78
330.00 4.775
330.10 4.769
330.20 4.764
330.30 4.758
330.40 4.753
330.50 4.747
330.60 4.742
330.70 4.737
330.80 4.731
330.90 4.726
331.00 4.72
331.10 4.715
331.20 4.71
331.30 4.704
331.40 4.699
331.50 4.693
331.60 4.688
331.70 4.683
331.80 4.677
331.90 4.672
332.00 4.667
332.10 4.661
332.20 4.656
332.30 4.651
332.40 4.646
332.50 4.64
332.60 4.635
332.70 4.63
332.80 4.624
332.90 4.619
333.00 4.614
333.10 4.609
333.20 4.603
333.30 4.598
333.40 4.593
333.50 4.588
333.60 4.583
333.70 4.577
333.80 4.572
333.90 4.567
334.00 4.562
334.10 4.557
334.20 4.551
334.30 4.546
334.40 4.541
334.50 4.536
334.60 4.531
334.70 4.526
334.80 4.521
334.90 4.516
335.00 4.51
335.10 4.505
335.20 4.5
335.30 4.495
335.40 4.49
335.50 4.485
335.60 4.48
335.70 4.475
335.80 4.47
335.90 4.465
336.00 4.46
336.10 4.455
336.20 4.45
336.30 4.445
336.40 4.44
336.50 4.435
336.60 4.43
336.70 4.425
336.80 4.42
336.90 4.415
337.00 4.41
337.10 4.405
337.20 4.4
337.30 4.395
337.40 4.39
337.50 4.385
337.60 4.38
337.70 4.375
337.80 4.37
337.90 4.366
338.00 4.361
338.10 4.356
338.20 4.351
338.30 4.346
338.40 4.341
338.50 4.336
338.60 4.331
338.70 4.327
338.80 4.322
338.90 4.317
339.00 4.312
339.10 4.307
339.20 4.303
339.30 4.298
339.40 4.293
339.50 4.288
339.60 4.283
339.70 4.279
339.80 4.274
339.90 4.269
340.00 4.264
340.10 4.259
340.20 4.255
340.30 4.25
340.40 4.245
340.50 4.241
340.60 4.236
340.70 4.231
340.80 4.226
340.90 4.222
341.00 4.217
341.10 4.212
341.20 4.208
341.30 4.203
341.40 4.198
341.50 4.194
341.60 4.189
341.70 4.184
341.80 4.18
341.90 4.175
342.00 4.17
342.10 4.166
342.20 4.161
342.30 4.157
342.40 4.152
342.50 4.147
342.60 4.143
342.70 4.138
342.80 4.134
342.90 4.129
343.00 4.125
343.10 4.12
343.20 4.116
343.30 4.111
343.40 4.106
343.50 4.102
343.60 4.097
343.70 4.093
343.80 4.088
343.90 4.084
344.00 4.079
344.10 4.075
344.20 4.07
344.30 4.066
344.40 4.061
344.50 4.057
344.60 4.052
344.70 4.048
344.80 4.044
344.90 4.039
345.00 4.035
345.10 4.03
345.20 4.026
345.30 4.021
345.40 4.017
345.50 4.013
345.60 4.008
345.70 4.004
345.80 3.999
345.90 3.995
346.00 3.991
346.10 3.986
346.20 3.982
346.30 3.978
346.40 3.973
346.50 3.969
346.60 3.965
346.70 3.96
346.80 3.956
346.90 3.952
347.00 3.947
347.10 3.943
347.20 3.939
347.30 3.934
347.40 3.93
347.50 3.926
347.60 3.921
347.70 3.917
347.80 3.913
347.90 3.909
348.00 3.904
348.10 3.9
348.20 3.896
348.30 3.892
348.40 3.887
348.50 3.883
348.60 3.879
348.70 3.875
348.80 3.871
348.90 3.866
349.00 3.862
349.10 3.858
349.20 3.854
349.30 3.85
349.40 3.845
349.50 3.841
349.60 3.837
349.70 3.833
349.80 3.829
349.90 3.825
350.00 3.82
350.10 3.816
350.20 3.812
350.30 3.808
350.40 3.804
350.50 3.8
350.60 3.796
350.70 3.792
350.80 3.787
350.90 3.783
351.00 3.779
351.10 3.775
351.20 3.771
351.30 3.767
351.40 3.763
351.50 3.759
351.60 3.755
351.70 3.751
351.80 3.747
351.90 3.743
352.00 3.739
352.10 3.735
352.20 3.731
352.30 3.727
352.40 3.723
352.50 3.719
352.60 3.715
352.70 3.711
352.80 3.707
352.90 3.703
353.00 3.699
353.10 3.695
353.20 3.691
353.30 3.687
353.40 3.683
353.50 3.679
353.60 3.675
353.70 3.671
353.80 3.667
353.90 3.663
354.00 3.659
354.10 3.655
354.20 3.651
354.30 3.647
354.40 3.644
354.50 3.64
354.60 3.636
354.70 3.632
354.80 3.628
354.90 3.624
355.00 3.62
355.10 3.616
355.20 3.612
355.30 3.609
355.40 3.605
355.50 3.601
355.60 3.597
355.70 3.593
355.80 3.589
355.90 3.586
356.00 3.582
356.10 3.578
356.20 3.574
356.30 3.57
356.40 3.567
356.50 3.563
356.60 3.559
356.70 3.555
356.80 3.551
356.90 3.548
357.00 3.544
357.10 3.54
357.20 3.536
357.30 3.533
357.40 3.529
357.50 3.525
357.60 3.521
357.70 3.518
357.80 3.514
357.90 3.51
358.00 3.506
358.10 3.503
358.20 3.499
358.30 3.495
358.40 3.492
358.50 3.488
358.60 3.484
358.70 3.48
358.80 3.477
358.90 3.473
359.00 3.469
359.10 3.466
359.20 3.462
359.30 3.458
359.40 3.455
359.50 3.451
359.60 3.448
359.70 3.444
359.80 3.44
359.90 3.437
360.00 3.433
360.10 3.429
360.20 3.426
360.30 3.422
360.40 3.419
360.50 3.415
360.60 3.411
360.70 3.408
360.80 3.404
360.90 3.401
361.00 3.397
361.10 3.393
361.20 3.39
361.30 3.386
361.40 3.383
361.50 3.379
361.60 3.376
361.70 3.372
361.80 3.369
361.90 3.365
362.00 3.361
362.10 3.358
362.20 3.354
362.30 3.351
362.40 3.347
362.50 3.344
362.60 3.34
362.70 3.337
362.80 3.333
362.90 3.33
363.00 3.326
363.10 3.323
363.20 3.319
363.30 3.316
363.40 3.313
363.50 3.309
363.60 3.306
363.70 3.302
363.80 3.299
363.90 3.295
364.00 3.292
364.10 3.288
364.20 3.285
364.30 3.282
364.40 3.278
364.50 3.275
364.60 3.271
364.70 3.268
364.80 3.265
364.90 3.261
365.00 3.258
365.10 3.254
365.20 3.251
365.30 3.248
365.40 3.244
365.50 3.241
365.60 3.237
365.70 3.234
365.80 3.231
365.90 3.227
366.00 3.224
366.10 3.221
366.20 3.217
366.30 3.214
366.40 3.211
366.50 3.207
366.60 3.204
366.70 3.201
366.80 3.197
366.90 3.194
367.00 3.191
367.10 3.187
367.20 3.184
367.30 3.181
367.40 3.177
367.50 3.174
367.60 3.171
367.70 3.167
367.80 3.164
367.90 3.161
368.00 3.157
368.10 3.154
368.20 3.151
368.30 3.147
368.40 3.144
368.50 3.141
368.60 3.138
368.70 3.134
368.80 3.131
368.90 3.128
369.00 3.124
369.10 3.121
369.20 3.118
369.30 3.115
369.40 3.111
369.50 3.108
369.60 3.105
369.70 3.101
369.80 3.098
369.90 3.095
370.00 3.092
370.10 3.088
370.20 3.085
370.30 3.082
370.40 3.079
370.50 3.076
370.60 3.072
370.70 3.069
370.80 3.066
370.90 3.063
371.00 3.06
371.10 3.056
371.20 3.053
371.30 3.05
371.40 3.047
371.50 3.044
371.60 3.041
371.70 3.037
371.80 3.034
371.90 3.031
372.00 3.028
372.10 3.025
372.20 3.022
372.30 3.019
372.40 3.016
372.50 3.013
372.60 3.009
372.70 3.006
372.80 3.003
372.90 3
373.00 2.997
373.10 2.994
373.20 2.991
373.30 2.988
373.40 2.985
373.50 2.982
373.60 2.979
373.70 2.976
373.80 2.973
373.90 2.97
374.00 2.967
374.10 2.964
374.20 2.961
374.30 2.958
374.40 2.955
374.50 2.951
374.60 2.948
374.70 2.945
374.80 2.942
374.90 2.939
375.00 2.936
375.10 2.933
375.20 2.93
375.30 2.927
375.40 2.924
375.50 2.921
375.60 2.918
375.70 2.915
375.80 2.912
375.90 2.909
376.00 2.906
376.10 2.903
376.20 2.9
376.30 2.897
376.40 2.894
376.50 2.891
376.60 2.888
376.70 2.885
376.80 2.882
376.90 2.879
377.00 2.876
377.10 2.874
377.20 2.871
377.30 2.868
377.40 2.865
377.50 2.862
377.60 2.859
377.70 2.856
377.80 2.853
377.90 2.85
378.00 2.847
378.10 2.845
378.20 2.842
378.30 2.839
378.40 2.836
378.50 2.833
378.60 2.83
378.70 2.827
378.80 2.825
378.90 2.822
379.00 2.819
379.10 2.816
379.20 2.813
379.30 2.81
379.40 2.808
379.50 2.805
379.60 2.802
379.70 2.799
379.80 2.796
379.90 2.794
380.00 2.791
380.10 2.788
380.20 2.785
380.30 2.782
380.40 2.78
380.50 2.777
380.60 2.774
380.70 2.771
380.80 2.769
380.90 2.766
381.00 2.763
381.10 2.76
381.20 2.758
381.30 2.755
381.40 2.752
381.50 2.75
381.60 2.747
381.70 2.744
381.80 2.741
381.90 2.739
382.00 2.736
382.10 2.733
382.20 2.731
382.30 2.728
382.40 2.725
382.50 2.723
382.60 2.72
382.70 2.717
382.80 2.715
382.90 2.712
383.00 2.709
383.10 2.707
383.20 2.704
383.30 2.701
383.40 2.699
383.50 2.696
383.60 2.694
383.70 2.691
383.80 2.688
383.90 2.686
384.00 2.683
384.10 2.681
384.20 2.678
384.30 2.675
384.40 2.673
384.50 2.67
384.60 2.668
384.70 2.665
384.80 2.663
384.90 2.66
385.00 2.658
385.10 2.655
385.20 2.653
385.30 2.65
385.40 2.647
385.50 2.645
385.60 2.642
385.70 2.64
385.80 2.637
385.90 2.635
386.00 2.632
386.10 2.63
386.20 2.627
386.30 2.625
386.40 2.622
386.50 2.619
386.60 2.617
386.70 2.614
386.80 2.612
386.90 2.609
387.00 2.607
387.10 2.604
387.20 2.601
387.30 2.599
387.40 2.596
387.50 2.594
387.60 2.591
387.70 2.589
387.80 2.586
387.90 2.584
388.00 2.581
388.10 2.579
388.20 2.576
388.30 2.574
388.40 2.571
388.50 2.569
388.60 2.566
388.70 2.564
388.80 2.562
388.90 2.559
389.00 2.557
389.10 2.555
389.20 2.552
389.30 2.55
389.40 2.548
389.50 2.545
389.60 2.543
389.70 2.541
389.80 2.538
389.90 2.536
390.00 2.534
390.10 2.532
390.20 2.53
390.30 2.527
390.40 2.525
390.50 2.523
390.60 2.521
390.70 2.518
390.80 2.516
390.90 2.514
391.00 2.512
391.10 2.509
391.20 2.507
391.30 2.505
391.40 2.503
391.50 2.5
391.60 2.498
391.70 2.496
391.80 2.493
391.90 2.491
392.00 2.489
392.10 2.486
392.20 2.484
392.30 2.482
392.40 2.479
392.50 2.477
392.60 2.474
392.70 2.472
392.80 2.469
392.90 2.467
393.00 2.464
393.10 2.462
393.20 2.459
393.30 2.457
393.40 2.454
393.50 2.452
393.60 2.449
393.70 2.447
393.80 2.444
393.90 2.441
394.00 2.439
394.10 2.436
394.20 2.433
394.30 2.431
394.40 2.428
394.50 2.425
394.60 2.423
394.70 2.42
394.80 2.417
394.90 2.414
395.00 2.412
395.10 2.409
395.20 2.406
395.30 2.403
395.40 2.4
395.50 2.398
395.60 2.395
395.70 2.392
395.80 2.389
395.90 2.386
396.00 2.383
396.10 2.381
396.20 2.378
396.30 2.375
396.40 2.372
396.50 2.37
396.60 2.367
396.70 2.364
396.80 2.362
396.90 2.36
397.00 2.357
397.10 2.355
397.20 2.354
397.30 2.352
397.40 2.35
397.50 2.349
397.60 2.347
397.70 2.346
397.80 2.344
397.90 2.343
398.00 2.341
398.10 2.34
398.20 2.339
398.30 2.337
398.40 2.336
398.50 2.334
398.60 2.333
398.70 2.331
398.80 2.33
398.90 2.329
399.00 2.327
399.10 2.326
399.20 2.324
399.30 2.323
399.40 2.321
399.50 2.32
399.60 2.318
399.70 2.317
399.80 2.315
399.90 2.313
400.00 2.312
400.10 2.31
400.20 2.309
400.30 2.307
400.40 2.305
400.50 2.304
400.60 2.302
400.70 2.3
400.80 2.298
400.90 2.297
401.00 2.295
401.10 2.293
401.20 2.291
401.30 2.289
401.40 2.287
401.50 2.286
401.60 2.284
401.70 2.282
401.80 2.28
401.90 2.278
402.00 2.276
402.10 2.274
402.20 2.272
402.30 2.27
402.40 2.268
402.50 2.266
402.60 2.264
402.70 2.262
402.80 2.26
402.90 2.257
403.00 2.255
403.10 2.253
403.20 2.251
403.30 2.249
403.40 2.246
403.50 2.244
403.60 2.242
403.70 2.24
403.80 2.237
403.90 2.235
404.00 2.232
404.10 2.23
404.20 2.228
404.30 2.225
404.40 2.223
404.50 2.22
404.60 2.218
404.70 2.215
404.80 2.213
404.90 2.21
405.00 2.207
405.10 2.205
405.20 2.202
405.30 2.199
405.40 2.197
405.50 2.194
405.60 2.191
405.70 2.188
405.80 2.185
405.90 2.183
406.00 2.18
406.10 2.177
406.20 2.174
406.30 2.171
406.40 2.168
406.50 2.165
406.60 2.162
406.70 2.158
406.80 2.155
406.90 2.152
407.00 2.149
407.10 2.146
407.20 2.142
407.30 2.139
407.40 2.136
407.50 2.132
407.60 2.129
407.70 2.125
407.80 2.122
407.90 2.118
408.00 2.115
408.10 2.111
408.20 2.107
408.30 2.104
408.40 2.1
408.50 2.096
408.60 2.093
408.70 2.089
408.80 2.085
408.90 2.081
409.00 2.078
409.10 2.074
409.20 2.071
409.30 2.067
409.40 2.064
409.50 2.061
409.60 2.058
409.70 2.055
409.80 2.053
409.90 2.051
410.00 2.05
410.10 2.049
410.20 2.048
410.30 2.045
410.40 2.042
410.50 2.04
410.60 2.038
410.70 2.037
410.80 2.036
410.90 2.036
411.00 2.035
411.10 2.035
411.20 2.035
411.30 2.035
411.40 2.035
411.50 2.035
411.60 2.035
411.70 2.035
411.80 2.035
411.90 2.035
412.00 2.035
412.10 2.035
412.20 2.035
412.30 2.035
412.40 2.034
412.50 2.034
412.60 2.034
412.70 2.034
412.80 2.033
412.90 2.033
413.00 2.033
413.10 2.032
413.20 2.032
413.30 2.031
413.40 2.031
413.50 2.03
413.60 2.03
413.70 2.029
413.80 2.028
413.90 2.028
414.00 2.027
414.10 2.026
414.20 2.025
414.30 2.025
414.40 2.024
414.50 2.023
414.60 2.022
414.70 2.021
414.80 2.02
414.90 2.019
415.00 2.018
415.10 2.017
415.20 2.016
415.30 2.015
415.40 2.014
415.50 2.013
415.60 2.012
415.70 2.01
415.80 2.009
415.90 2.008
416.00 2.007
416.10 2.006
416.20 2.004
416.30 2.003
416.40 2.002
416.50 2
416.60 1.999
416.70 1.998
416.80 1.996
416.90 1.995
417.00 1.994
417.10 1.992
417.20 1.991
417.30 1.989
417.40 1.988
417.50 1.987
417.60 1.985
417.70 1.984
417.80 1.982
417.90 1.981
418.00 1.979
418.10 1.978
418.20 1.976
418.30 1.975
418.40 1.973
418.50 1.972
418.60 1.97
418.70 1.968
418.80 1.967
418.90 1.965
419.00 1.964
419.10 1.962
419.20 1.96
419.30 1.959
419.40 1.957
419.50 1.956
419.60 1.954
419.70 1.952
419.80 1.951
419.90 1.949
420.00 1.947
420.10 1.946
420.20 1.944
420.30 1.942
420.40 1.941
420.50 1.939
420.60 1.937
420.70 1.936
420.80 1.934
420.90 1.932
421.00 1.931
421.10 1.929
421.20 1.927
421.30 1.926
421.40 1.924
421.50 1.922
421.60 1.92
421.70 1.919
421.80 1.917
421.90 1.915
422.00 1.913
422.10 1.912
422.20 1.91
422.30 1.908
422.40 1.906
422.50 1.905
422.60 1.903
422.70 1.901
422.80 1.899
422.90 1.898
423.00 1.896
423.10 1.894
423.20 1.892
423.30 1.89
423.40 1.889
423.50 1.887
423.60 1.885
423.70 1.883
423.80 1.881
423.90 1.879
424.00 1.878
424.10 1.876
424.20 1.874
424.30 1.872
424.40 1.87
424.50 1.868
424.60 1.866
424.70 1.864
424.80 1.863
424.90 1.861
425.00 1.859
425.10 1.857
425.20 1.855
425.30 1.853
425.40 1.851
425.50 1.849
425.60 1.847
425.70 1.845
425.80 1.843
425.90 1.841
426.00 1.839
426.10 1.837
426.20 1.835
426.30 1.833
426.40 1.831
426.50 1.829
426.60 1.827
426.70 1.825
426.80 1.823
426.90 1.821
427.00 1.818
427.10 1.816
427.20 1.814
427.30 1.812
427.40 1.81
427.50 1.808
427.60 1.805
427.70 1.803
427.80 1.801
427.90 1.798
428.00 1.796
428.10 1.794
428.20 1.791
428.30 1.789
428.40 1.786
428.50 1.784
428.60 1.782
428.70 1.779
428.80 1.776
428.90 1.774
429.00 1.771
429.10 1.769
429.20 1.766
429.30 1.763
429.40 1.76
429.50 1.758
429.60 1.755
429.70 1.752
429.80 1.749
429.90 1.746
430.00 1.743
430.10 1.74
430.20 1.737
430.30 1.734
430.40 1.731
430.50 1.727
430.60 1.724
430.70 1.721
430.80 1.717
430.90 1.714
431.00 1.71
431.10 1.707
431.20 1.703
431.30 1.699
431.40 1.696
431.50 1.692
431.60 1.688
431.70 1.684
431.80 1.68
431.90 1.676
432.00 1.672
432.10 1.668
432.20 1.664
432.30 1.66
432.40 1.655
432.50 1.651
432.60 1.647
432.70 1.642
432.80 1.638
432.90 1.634
433.00 1.63
433.10 1.625
433.20 1.621
433.30 1.617
433.40 1.613
433.50 1.609
433.60 1.605
433.70 1.6
433.80 1.595
433.90 1.59
434.00 1.587
434.10 1.586
434.20 1.587
434.30 1.589
434.40 1.591
434.50 1.593
434.60 1.594
434.70 1.596
434.80 1.597
434.90 1.598
435.00 1.6
435.10 1.601
435.20 1.603
435.30 1.604
435.40 1.606
435.50 1.607
435.60 1.608
435.70 1.61
435.80 1.611
435.90 1.612
436.00 1.614
436.10 1.615
436.20 1.616
436.30 1.617
436.40 1.618
436.50 1.619
436.60 1.62
436.70 1.621
436.80 1.622
436.90 1.622
437.00 1.623
437.10 1.624
437.20 1.624
437.30 1.625
437.40 1.625
437.50 1.625
437.60 1.626
437.70 1.626
437.80 1.626
437.90 1.626
438.00 1.626
438.10 1.626
438.20 1.626
438.30 1.626
438.40 1.626
438.50 1.626
438.60 1.625
438.70 1.625
438.80 1.625
438.90 1.625
439.00 1.624
439.10 1.624
439.20 1.623
439.30 1.623
439.40 1.622
439.50 1.622
439.60 1.621
439.70 1.62
439.80 1.62
439.90 1.619
440.00 1.618
440.10 1.618
440.20 1.617
440.30 1.616
440.40 1.615
440.50 1.615
440.60 1.614
440.70 1.613
440.80 1.612
440.90 1.611
441.00 1.61
441.10 1.609
441.20 1.608
441.30 1.607
441.40 1.607
441.50 1.606
441.60 1.605
441.70 1.604
441.80 1.603
441.90 1.601
442.00 1.6
442.10 1.599
442.20 1.598
442.30 1.597
442.40 1.596
442.50 1.595
442.60 1.594
442.70 1.593
442.80 1.592
442.90 1.591
443.00 1.59
443.10 1.588
443.20 1.587
443.30 1.586
443.40 1.585
443.50 1.584
443.60 1.583
443.70 1.581
443.80 1.58
443.90 1.579
444.00 1.578
444.10 1.577
444.20 1.576
444.30 1.574
444.40 1.573
444.50 1.572
444.60 1.571
444.70 1.569
444.80 1.568
444.90 1.567
445.00 1.566
445.10 1.565
445.20 1.563
445.30 1.562
445.40 1.561
445.50 1.56
445.60 1.558
445.70 1.557
445.80 1.556
445.90 1.555
446.00 1.553
446.10 1.552
446.20 1.551
446.30 1.55
446.40 1.548
446.50 1.547
446.60 1.546
446.70 1.545
446.80 1.543
446.90 1.542
447.00 1.541
447.10 1.54
447.20 1.538
447.30 1.537
447.40 1.536
447.50 1.535
447.60 1.533
447.70 1.532
447.80 1.531
447.90 1.53
448.00 1.528
448.10 1.527
448.20 1.526
448.30 1.525
448.40 1.523
448.50 1.522
448.60 1.521
448.70 1.52
448.80 1.518
448.90 1.517
449.00 1.516
449.10 1.515
449.20 1.513
449.30 1.512
449.40 1.511
449.50 1.51
449.60 1.508
449.70 1.507
449.80 1.506
449.90 1.505
450.00 1.503
450.10 1.502
450.20 1.501
450.30 1.499
450.40 1.498
450.50 1.497
450.60 1.496
450.70 1.494
450.80 1.493
450.90 1.492
451.00 1.491
451.10 1.489
451.20 1.488
451.30 1.487
451.40 1.486
451.50 1.485
451.60 1.483
451.70 1.482
451.80 1.481
451.90 1.48
452.00 1.478
452.10 1.477
452.20 1.476
452.30 1.475
452.40 1.473
452.50 1.472
452.60 1.471
452.70 1.47
452.80 1.468
452.90 1.467
453.00 1.466
453.10 1.465
453.20 1.463
453.30 1.462
453.40 1.461
453.50 1.46
453.60 1.459
453.70 1.457
453.80 1.456
453.90 1.455
454.00 1.454
454.10 1.452
454.20 1.451
