# Version 2.1 - nm, norm@500 to 1, cut digits, bergeron_50000_95.dat_50000
# Wavelength(nm)  Flambda(ergs/cm^s/s/nm)
300.00 6.284
300.10 6.276
300.20 6.269
300.30 6.261
300.40 6.253
300.50 6.246
300.60 6.238
300.70 6.231
300.80 6.223
300.90 6.216
301.00 6.208
301.10 6.201
301.20 6.193
301.30 6.186
301.40 6.178
301.50 6.171
301.60 6.164
301.70 6.156
301.80 6.149
301.90 6.141
302.00 6.134
302.10 6.127
302.20 6.119
302.30 6.112
302.40 6.104
302.50 6.097
302.60 6.09
302.70 6.083
302.80 6.075
302.90 6.068
303.00 6.061
303.10 6.053
303.20 6.046
303.30 6.039
303.40 6.032
303.50 6.024
303.60 6.017
303.70 6.01
303.80 6.003
303.90 5.996
304.00 5.988
304.10 5.981
304.20 5.974
304.30 5.967
304.40 5.96
304.50 5.953
304.60 5.946
304.70 5.939
304.80 5.932
304.90 5.924
305.00 5.917
305.10 5.91
305.20 5.903
305.30 5.896
305.40 5.889
305.50 5.882
305.60 5.875
305.70 5.868
305.80 5.861
305.90 5.854
306.00 5.847
306.10 5.84
306.20 5.833
306.30 5.827
306.40 5.82
306.50 5.813
306.60 5.806
306.70 5.799
306.80 5.792
306.90 5.785
307.00 5.778
307.10 5.772
307.20 5.765
307.30 5.758
307.40 5.751
307.50 5.744
307.60 5.737
307.70 5.731
307.80 5.724
307.90 5.717
308.00 5.71
308.10 5.704
308.20 5.697
308.30 5.69
308.40 5.683
308.50 5.677
308.60 5.67
308.70 5.663
308.80 5.657
308.90 5.65
309.00 5.643
309.10 5.637
309.20 5.63
309.30 5.623
309.40 5.617
309.50 5.61
309.60 5.604
309.70 5.597
309.80 5.591
309.90 5.584
310.00 5.577
310.10 5.571
310.20 5.564
310.30 5.558
310.40 5.551
310.50 5.545
310.60 5.538
310.70 5.532
310.80 5.525
310.90 5.519
311.00 5.512
311.10 5.506
311.20 5.499
311.30 5.493
311.40 5.487
311.50 5.48
311.60 5.474
311.70 5.467
311.80 5.461
311.90 5.455
312.00 5.448
312.10 5.442
312.20 5.436
312.30 5.429
312.40 5.423
312.50 5.417
312.60 5.41
312.70 5.404
312.80 5.398
312.90 5.391
313.00 5.385
313.10 5.379
313.20 5.373
313.30 5.366
313.40 5.36
313.50 5.354
313.60 5.348
313.70 5.341
313.80 5.335
313.90 5.329
314.00 5.323
314.10 5.317
314.20 5.311
314.30 5.304
314.40 5.298
314.50 5.292
314.60 5.286
314.70 5.28
314.80 5.274
314.90 5.268
315.00 5.262
315.10 5.255
315.20 5.249
315.30 5.243
315.40 5.237
315.50 5.231
315.60 5.225
315.70 5.219
315.80 5.213
315.90 5.207
316.00 5.201
316.10 5.195
316.20 5.189
316.30 5.183
316.40 5.177
316.50 5.171
316.60 5.165
316.70 5.159
316.80 5.153
316.90 5.147
317.00 5.141
317.10 5.136
317.20 5.13
317.30 5.124
317.40 5.118
317.50 5.112
317.60 5.106
317.70 5.1
317.80 5.094
317.90 5.089
318.00 5.083
318.10 5.077
318.20 5.071
318.30 5.065
318.40 5.059
318.50 5.054
318.60 5.048
318.70 5.042
318.80 5.036
318.90 5.031
319.00 5.025
319.10 5.019
319.20 5.013
319.30 5.008
319.40 5.002
319.50 4.996
319.60 4.99
319.70 4.985
319.80 4.979
319.90 4.973
320.00 4.968
320.10 4.962
320.20 4.956
320.30 4.951
320.40 4.945
320.50 4.94
320.60 4.934
320.70 4.928
320.80 4.923
320.90 4.917
321.00 4.912
321.10 4.906
321.20 4.9
321.30 4.895
321.40 4.889
321.50 4.884
321.60 4.878
321.70 4.873
321.80 4.867
321.90 4.862
322.00 4.856
322.10 4.851
322.20 4.845
322.30 4.84
322.40 4.834
322.50 4.829
322.60 4.823
322.70 4.818
322.80 4.812
322.90 4.807
323.00 4.801
323.10 4.796
323.20 4.791
323.30 4.785
323.40 4.78
323.50 4.774
323.60 4.769
323.70 4.764
323.80 4.758
323.90 4.753
324.00 4.747
324.10 4.742
324.20 4.737
324.30 4.731
324.40 4.726
324.50 4.721
324.60 4.715
324.70 4.71
324.80 4.705
324.90 4.7
325.00 4.694
325.10 4.689
325.20 4.684
325.30 4.679
325.40 4.673
325.50 4.668
325.60 4.663
325.70 4.658
325.80 4.652
325.90 4.647
326.00 4.642
326.10 4.637
326.20 4.632
326.30 4.626
326.40 4.621
326.50 4.616
326.60 4.611
326.70 4.606
326.80 4.601
326.90 4.595
327.00 4.59
327.10 4.585
327.20 4.58
327.30 4.575
327.40 4.57
327.50 4.565
327.60 4.56
327.70 4.555
327.80 4.549
327.90 4.544
328.00 4.539
328.10 4.534
328.20 4.529
328.30 4.524
328.40 4.519
328.50 4.514
328.60 4.509
328.70 4.504
328.80 4.499
328.90 4.494
329.00 4.489
329.10 4.484
329.20 4.479
329.30 4.474
329.40 4.469
329.50 4.464
329.60 4.459
329.70 4.454
329.80 4.449
329.90 4.444
330.00 4.44
330.10 4.435
330.20 4.43
330.30 4.425
330.40 4.42
330.50 4.415
330.60 4.41
330.70 4.405
330.80 4.4
330.90 4.396
331.00 4.391
331.10 4.386
331.20 4.381
331.30 4.376
331.40 4.371
331.50 4.367
331.60 4.362
331.70 4.357
331.80 4.352
331.90 4.347
332.00 4.342
332.10 4.338
332.20 4.333
332.30 4.328
332.40 4.323
332.50 4.319
332.60 4.314
332.70 4.309
332.80 4.304
332.90 4.3
333.00 4.295
333.10 4.29
333.20 4.286
333.30 4.281
333.40 4.276
333.50 4.271
333.60 4.267
333.70 4.262
333.80 4.257
333.90 4.253
334.00 4.248
334.10 4.243
334.20 4.239
334.30 4.234
334.40 4.229
334.50 4.225
334.60 4.22
334.70 4.216
334.80 4.211
334.90 4.206
335.00 4.202
335.10 4.197
335.20 4.193
335.30 4.188
335.40 4.184
335.50 4.179
335.60 4.174
335.70 4.17
335.80 4.165
335.90 4.161
336.00 4.156
336.10 4.152
336.20 4.147
336.30 4.143
336.40 4.138
336.50 4.134
336.60 4.129
336.70 4.125
336.80 4.12
336.90 4.116
337.00 4.111
337.10 4.107
337.20 4.102
337.30 4.098
337.40 4.093
337.50 4.089
337.60 4.085
337.70 4.08
337.80 4.076
337.90 4.071
338.00 4.067
338.10 4.062
338.20 4.058
338.30 4.054
338.40 4.049
338.50 4.045
338.60 4.041
338.70 4.036
338.80 4.032
338.90 4.027
339.00 4.023
339.10 4.019
339.20 4.014
339.30 4.01
339.40 4.006
339.50 4.001
339.60 3.997
339.70 3.993
339.80 3.988
339.90 3.984
340.00 3.98
340.10 3.976
340.20 3.971
340.30 3.967
340.40 3.963
340.50 3.958
340.60 3.954
340.70 3.95
340.80 3.946
340.90 3.942
341.00 3.937
341.10 3.933
341.20 3.929
341.30 3.925
341.40 3.92
341.50 3.916
341.60 3.912
341.70 3.908
341.80 3.904
341.90 3.899
342.00 3.895
342.10 3.891
342.20 3.887
342.30 3.883
342.40 3.879
342.50 3.874
342.60 3.87
342.70 3.866
342.80 3.862
342.90 3.858
343.00 3.854
343.10 3.85
343.20 3.846
343.30 3.841
343.40 3.837
343.50 3.833
343.60 3.829
343.70 3.825
343.80 3.821
343.90 3.817
344.00 3.813
344.10 3.809
344.20 3.805
344.30 3.801
344.40 3.797
344.50 3.793
344.60 3.789
344.70 3.785
344.80 3.78
344.90 3.776
345.00 3.772
345.10 3.768
345.20 3.764
345.30 3.76
345.40 3.756
345.50 3.752
345.60 3.748
345.70 3.744
345.80 3.74
345.90 3.736
346.00 3.733
346.10 3.729
346.20 3.725
346.30 3.721
346.40 3.717
346.50 3.713
346.60 3.709
346.70 3.705
346.80 3.701
346.90 3.697
347.00 3.693
347.10 3.689
347.20 3.685
347.30 3.682
347.40 3.678
347.50 3.674
347.60 3.67
347.70 3.666
347.80 3.662
347.90 3.658
348.00 3.654
348.10 3.651
348.20 3.647
348.30 3.643
348.40 3.639
348.50 3.635
348.60 3.631
348.70 3.628
348.80 3.624
348.90 3.62
349.00 3.616
349.10 3.612
349.20 3.609
349.30 3.605
349.40 3.601
349.50 3.597
349.60 3.593
349.70 3.59
349.80 3.586
349.90 3.582
350.00 3.578
350.10 3.575
350.20 3.571
350.30 3.567
350.40 3.563
350.50 3.56
350.60 3.556
350.70 3.552
350.80 3.548
350.90 3.545
351.00 3.541
351.10 3.537
351.20 3.534
351.30 3.53
351.40 3.526
351.50 3.523
351.60 3.519
351.70 3.515
351.80 3.512
351.90 3.508
352.00 3.504
352.10 3.501
352.20 3.497
352.30 3.493
352.40 3.49
352.50 3.486
352.60 3.482
352.70 3.479
352.80 3.475
352.90 3.472
353.00 3.468
353.10 3.464
353.20 3.461
353.30 3.457
353.40 3.454
353.50 3.45
353.60 3.446
353.70 3.443
353.80 3.439
353.90 3.436
354.00 3.432
354.10 3.428
354.20 3.425
354.30 3.421
354.40 3.418
354.50 3.414
354.60 3.411
354.70 3.407
354.80 3.404
354.90 3.4
355.00 3.397
355.10 3.393
355.20 3.39
355.30 3.386
355.40 3.383
355.50 3.379
355.60 3.376
355.70 3.372
355.80 3.369
355.90 3.365
356.00 3.362
356.10 3.358
356.20 3.355
356.30 3.351
356.40 3.348
356.50 3.344
356.60 3.341
356.70 3.338
356.80 3.334
356.90 3.331
357.00 3.327
357.10 3.324
357.20 3.32
357.30 3.317
357.40 3.314
357.50 3.31
357.60 3.307
357.70 3.303
357.80 3.3
357.90 3.297
358.00 3.293
358.10 3.29
358.20 3.286
358.30 3.283
358.40 3.28
358.50 3.276
358.60 3.273
358.70 3.27
358.80 3.266
358.90 3.263
359.00 3.26
359.10 3.256
359.20 3.253
359.30 3.25
359.40 3.246
359.50 3.243
359.60 3.24
359.70 3.236
359.80 3.233
359.90 3.23
360.00 3.226
360.10 3.223
360.20 3.22
360.30 3.216
360.40 3.213
360.50 3.21
360.60 3.207
360.70 3.203
360.80 3.2
360.90 3.197
361.00 3.194
361.10 3.19
361.20 3.187
361.30 3.184
361.40 3.181
361.50 3.177
361.60 3.174
361.70 3.171
361.80 3.168
361.90 3.164
362.00 3.161
362.10 3.158
362.20 3.155
362.30 3.152
362.40 3.148
362.50 3.145
362.60 3.142
362.70 3.139
362.80 3.136
362.90 3.132
363.00 3.129
363.10 3.126
363.20 3.123
363.30 3.12
363.40 3.117
363.50 3.113
363.60 3.11
363.70 3.107
363.80 3.104
363.90 3.101
364.00 3.098
364.10 3.095
364.20 3.092
364.30 3.088
364.40 3.085
364.50 3.082
364.60 3.079
364.70 3.076
364.80 3.073
364.90 3.07
365.00 3.067
365.10 3.064
365.20 3.06
365.30 3.057
365.40 3.054
365.50 3.051
365.60 3.048
365.70 3.045
365.80 3.042
365.90 3.039
366.00 3.036
366.10 3.033
366.20 3.03
366.30 3.027
366.40 3.024
366.50 3.021
366.60 3.018
366.70 3.014
366.80 3.011
366.90 3.008
367.00 3.005
367.10 3.002
367.20 2.999
367.30 2.996
367.40 2.993
367.50 2.99
367.60 2.987
367.70 2.984
367.80 2.981
367.90 2.978
368.00 2.975
368.10 2.972
368.20 2.969
368.30 2.966
368.40 2.963
368.50 2.959
368.60 2.956
368.70 2.953
368.80 2.95
368.90 2.947
369.00 2.944
369.10 2.941
369.20 2.938
369.30 2.935
369.40 2.932
369.50 2.929
369.60 2.926
369.70 2.923
369.80 2.919
369.90 2.916
370.00 2.913
370.10 2.91
370.20 2.907
370.30 2.904
370.40 2.901
370.50 2.898
370.60 2.895
370.70 2.892
370.80 2.889
370.90 2.886
371.00 2.883
371.10 2.88
371.20 2.877
371.30 2.874
371.40 2.871
371.50 2.868
371.60 2.865
371.70 2.862
371.80 2.859
371.90 2.856
372.00 2.853
372.10 2.85
372.20 2.847
372.30 2.845
372.40 2.842
372.50 2.839
372.60 2.836
372.70 2.834
372.80 2.831
372.90 2.828
373.00 2.826
373.10 2.823
373.20 2.82
373.30 2.817
373.40 2.815
373.50 2.812
373.60 2.809
373.70 2.807
373.80 2.804
373.90 2.801
374.00 2.798
374.10 2.796
374.20 2.793
374.30 2.79
374.40 2.787
374.50 2.784
374.60 2.781
374.70 2.778
374.80 2.775
374.90 2.773
375.00 2.77
375.10 2.767
375.20 2.764
375.30 2.761
375.40 2.758
375.50 2.755
375.60 2.752
375.70 2.75
375.80 2.747
375.90 2.744
376.00 2.741
376.10 2.738
376.20 2.735
376.30 2.733
376.40 2.73
376.50 2.727
376.60 2.724
376.70 2.721
376.80 2.719
376.90 2.716
377.00 2.713
377.10 2.71
377.20 2.708
377.30 2.705
377.40 2.702
377.50 2.699
377.60 2.697
377.70 2.694
377.80 2.691
377.90 2.689
378.00 2.686
378.10 2.683
378.20 2.681
378.30 2.678
378.40 2.675
378.50 2.673
378.60 2.67
378.70 2.667
378.80 2.665
378.90 2.662
379.00 2.66
379.10 2.657
379.20 2.654
379.30 2.652
379.40 2.649
379.50 2.646
379.60 2.644
379.70 2.641
379.80 2.638
379.90 2.636
380.00 2.633
380.10 2.631
380.20 2.628
380.30 2.625
380.40 2.623
380.50 2.62
380.60 2.618
380.70 2.615
380.80 2.613
380.90 2.61
381.00 2.607
381.10 2.605
381.20 2.602
381.30 2.6
381.40 2.597
381.50 2.595
381.60 2.592
381.70 2.59
381.80 2.587
381.90 2.585
382.00 2.582
382.10 2.58
382.20 2.577
382.30 2.575
382.40 2.572
382.50 2.57
382.60 2.567
382.70 2.565
382.80 2.562
382.90 2.56
383.00 2.557
383.10 2.555
383.20 2.553
383.30 2.55
383.40 2.548
383.50 2.545
383.60 2.543
383.70 2.54
383.80 2.538
383.90 2.536
384.00 2.533
384.10 2.531
384.20 2.529
384.30 2.526
384.40 2.524
384.50 2.521
384.60 2.519
384.70 2.517
384.80 2.514
384.90 2.512
385.00 2.51
385.10 2.507
385.20 2.505
385.30 2.503
385.40 2.5
385.50 2.498
385.60 2.496
385.70 2.493
385.80 2.491
385.90 2.489
386.00 2.486
386.10 2.484
386.20 2.482
386.30 2.48
386.40 2.477
386.50 2.475
386.60 2.473
386.70 2.47
386.80 2.468
386.90 2.466
387.00 2.463
387.10 2.461
387.20 2.459
387.30 2.456
387.40 2.454
387.50 2.452
387.60 2.45
387.70 2.447
387.80 2.445
387.90 2.443
388.00 2.441
388.10 2.438
388.20 2.436
388.30 2.434
388.40 2.432
388.50 2.429
388.60 2.427
388.70 2.425
388.80 2.423
388.90 2.421
389.00 2.419
389.10 2.416
389.20 2.414
389.30 2.412
389.40 2.41
389.50 2.408
389.60 2.406
389.70 2.404
389.80 2.402
389.90 2.4
390.00 2.398
390.10 2.396
390.20 2.394
390.30 2.392
390.40 2.39
390.50 2.388
390.60 2.386
390.70 2.384
390.80 2.382
390.90 2.38
391.00 2.378
391.10 2.375
391.20 2.373
391.30 2.371
391.40 2.369
391.50 2.367
391.60 2.365
391.70 2.363
391.80 2.361
391.90 2.359
392.00 2.357
392.10 2.355
392.20 2.353
392.30 2.35
392.40 2.348
392.50 2.346
392.60 2.344
392.70 2.342
392.80 2.34
392.90 2.338
393.00 2.335
393.10 2.333
393.20 2.331
393.30 2.329
393.40 2.327
393.50 2.324
393.60 2.322
393.70 2.32
393.80 2.318
393.90 2.315
394.00 2.313
394.10 2.311
394.20 2.309
394.30 2.306
394.40 2.304
394.50 2.302
394.60 2.299
394.70 2.297
394.80 2.295
394.90 2.292
395.00 2.29
395.10 2.288
395.20 2.285
395.30 2.283
395.40 2.281
395.50 2.278
395.60 2.276
395.70 2.274
395.80 2.271
395.90 2.269
396.00 2.266
396.10 2.264
396.20 2.262
396.30 2.259
396.40 2.257
396.50 2.255
396.60 2.253
396.70 2.25
396.80 2.248
396.90 2.246
397.00 2.244
397.10 2.242
397.20 2.241
397.30 2.239
397.40 2.238
397.50 2.237
397.60 2.235
397.70 2.234
397.80 2.233
397.90 2.231
398.00 2.23
398.10 2.229
398.20 2.227
398.30 2.226
398.40 2.225
398.50 2.223
398.60 2.222
398.70 2.221
398.80 2.219
398.90 2.218
399.00 2.216
399.10 2.215
399.20 2.214
399.30 2.212
399.40 2.211
399.50 2.209
399.60 2.208
399.70 2.207
399.80 2.205
399.90 2.204
400.00 2.202
400.10 2.201
400.20 2.199
400.30 2.197
400.40 2.196
400.50 2.194
400.60 2.193
400.70 2.191
400.80 2.189
400.90 2.188
401.00 2.186
401.10 2.184
401.20 2.183
401.30 2.181
401.40 2.179
401.50 2.177
401.60 2.176
401.70 2.174
401.80 2.172
401.90 2.17
402.00 2.168
402.10 2.166
402.20 2.164
402.30 2.162
402.40 2.161
402.50 2.159
402.60 2.157
402.70 2.155
402.80 2.152
402.90 2.15
403.00 2.148
403.10 2.146
403.20 2.144
403.30 2.142
403.40 2.14
403.50 2.137
403.60 2.135
403.70 2.133
403.80 2.131
403.90 2.128
404.00 2.126
404.10 2.124
404.20 2.121
404.30 2.119
404.40 2.116
404.50 2.114
404.60 2.112
404.70 2.109
404.80 2.106
404.90 2.104
405.00 2.101
405.10 2.099
405.20 2.096
405.30 2.093
405.40 2.091
405.50 2.088
405.60 2.085
405.70 2.083
405.80 2.08
405.90 2.077
406.00 2.074
406.10 2.071
406.20 2.068
406.30 2.065
406.40 2.062
406.50 2.059
406.60 2.056
406.70 2.053
406.80 2.05
406.90 2.047
407.00 2.044
407.10 2.041
407.20 2.038
407.30 2.035
407.40 2.032
407.50 2.028
407.60 2.025
407.70 2.022
407.80 2.019
407.90 2.016
408.00 2.012
408.10 2.009
408.20 2.006
408.30 2.002
408.40 1.999
408.50 1.996
408.60 1.993
408.70 1.99
408.80 1.986
408.90 1.983
409.00 1.98
409.10 1.977
409.20 1.974
409.30 1.971
409.40 1.969
409.50 1.966
409.60 1.964
409.70 1.962
409.80 1.96
409.90 1.958
410.00 1.957
410.10 1.956
410.20 1.954
410.30 1.952
410.40 1.951
410.50 1.949
410.60 1.947
410.70 1.946
410.80 1.946
410.90 1.945
411.00 1.945
411.10 1.944
411.20 1.944
411.30 1.944
411.40 1.944
411.50 1.944
411.60 1.944
411.70 1.944
411.80 1.944
411.90 1.944
412.00 1.944
412.10 1.944
412.20 1.944
412.30 1.944
412.40 1.944
412.50 1.944
412.60 1.945
412.70 1.945
412.80 1.945
412.90 1.945
413.00 1.945
413.10 1.945
413.20 1.945
413.30 1.945
413.40 1.944
413.50 1.944
413.60 1.944
413.70 1.944
413.80 1.944
413.90 1.944
414.00 1.944
414.10 1.943
414.20 1.943
414.30 1.943
414.40 1.942
414.50 1.942
414.60 1.942
414.70 1.941
414.80 1.941
414.90 1.94
415.00 1.94
415.10 1.939
415.20 1.939
415.30 1.938
415.40 1.938
415.50 1.937
415.60 1.937
415.70 1.936
415.80 1.935
415.90 1.935
416.00 1.934
416.10 1.933
416.20 1.932
416.30 1.932
416.40 1.931
416.50 1.93
416.60 1.929
416.70 1.928
416.80 1.927
416.90 1.927
417.00 1.926
417.10 1.925
417.20 1.924
417.30 1.923
417.40 1.922
417.50 1.921
417.60 1.92
417.70 1.919
417.80 1.917
417.90 1.916
418.00 1.915
418.10 1.914
418.20 1.913
418.30 1.912
418.40 1.911
418.50 1.909
418.60 1.908
418.70 1.907
418.80 1.906
418.90 1.904
419.00 1.903
419.10 1.902
419.20 1.901
419.30 1.899
419.40 1.898
419.50 1.896
419.60 1.895
419.70 1.894
419.80 1.892
419.90 1.891
420.00 1.889
420.10 1.888
420.20 1.886
420.30 1.885
420.40 1.883
420.50 1.882
420.60 1.88
420.70 1.879
420.80 1.877
420.90 1.876
421.00 1.874
421.10 1.872
421.20 1.871
421.30 1.869
421.40 1.867
421.50 1.866
421.60 1.864
421.70 1.862
421.80 1.861
421.90 1.859
422.00 1.857
422.10 1.855
422.20 1.853
422.30 1.852
422.40 1.85
422.50 1.848
422.60 1.846
422.70 1.844
422.80 1.842
422.90 1.84
423.00 1.838
423.10 1.837
423.20 1.835
423.30 1.833
423.40 1.831
423.50 1.829
423.60 1.827
423.70 1.825
423.80 1.822
423.90 1.82
424.00 1.818
424.10 1.816
424.20 1.814
424.30 1.812
424.40 1.81
424.50 1.807
424.60 1.805
424.70 1.803
424.80 1.801
424.90 1.798
425.00 1.796
425.10 1.794
425.20 1.791
425.30 1.789
425.40 1.787
425.50 1.784
425.60 1.782
425.70 1.779
425.80 1.777
425.90 1.774
426.00 1.772
426.10 1.769
426.20 1.767
426.30 1.764
426.40 1.761
426.50 1.759
426.60 1.756
426.70 1.753
426.80 1.751
426.90 1.748
427.00 1.745
427.10 1.742
427.20 1.739
427.30 1.736
427.40 1.734
427.50 1.731
427.60 1.728
427.70 1.725
427.80 1.722
427.90 1.718
428.00 1.715
428.10 1.712
428.20 1.709
428.30 1.706
428.40 1.703
428.50 1.699
428.60 1.696
428.70 1.693
428.80 1.689
428.90 1.686
429.00 1.682
429.10 1.679
429.20 1.675
429.30 1.672
429.40 1.668
429.50 1.665
429.60 1.661
429.70 1.657
429.80 1.653
429.90 1.65
430.00 1.646
430.10 1.642
430.20 1.638
430.30 1.634
430.40 1.63
430.50 1.626
430.60 1.622
430.70 1.618
430.80 1.613
430.90 1.609
431.00 1.605
431.10 1.601
431.20 1.596
431.30 1.592
431.40 1.588
431.50 1.583
431.60 1.579
431.70 1.574
431.80 1.57
431.90 1.565
432.00 1.561
432.10 1.556
432.20 1.552
432.30 1.547
432.40 1.542
432.50 1.537
432.60 1.533
432.70 1.528
432.80 1.523
432.90 1.518
433.00 1.513
433.10 1.508
433.20 1.503
433.30 1.498
433.40 1.492
433.50 1.486
433.60 1.48
433.70 1.474
433.80 1.467
433.90 1.46
434.00 1.454
434.10 1.453
434.20 1.457
434.30 1.462
434.40 1.467
434.50 1.471
434.60 1.475
434.70 1.478
434.80 1.481
434.90 1.484
435.00 1.487
435.10 1.489
435.20 1.492
435.30 1.494
435.40 1.497
435.50 1.499
435.60 1.501
435.70 1.504
435.80 1.506
435.90 1.508
436.00 1.51
436.10 1.512
436.20 1.514
436.30 1.516
436.40 1.518
436.50 1.52
436.60 1.522
436.70 1.524
436.80 1.526
436.90 1.527
437.00 1.529
437.10 1.531
437.20 1.532
437.30 1.534
437.40 1.535
437.50 1.537
437.60 1.538
437.70 1.539
437.80 1.541
437.90 1.542
438.00 1.543
438.10 1.544
438.20 1.546
438.30 1.547
438.40 1.548
438.50 1.549
438.60 1.55
438.70 1.551
438.80 1.551
438.90 1.552
439.00 1.553
439.10 1.554
439.20 1.555
439.30 1.555
439.40 1.556
439.50 1.556
439.60 1.557
439.70 1.558
439.80 1.558
439.90 1.558
440.00 1.559
440.10 1.559
440.20 1.56
440.30 1.56
440.40 1.56
440.50 1.56
440.60 1.561
440.70 1.561
440.80 1.561
440.90 1.561
441.00 1.561
441.10 1.561
441.20 1.561
441.30 1.561
441.40 1.561
441.50 1.561
441.60 1.561
441.70 1.561
441.80 1.561
441.90 1.561
442.00 1.56
442.10 1.56
442.20 1.56
442.30 1.56
442.40 1.559
442.50 1.559
442.60 1.559
442.70 1.558
442.80 1.558
442.90 1.558
443.00 1.557
443.10 1.557
443.20 1.556
443.30 1.556
443.40 1.555
443.50 1.555
443.60 1.554
443.70 1.554
443.80 1.553
443.90 1.553
444.00 1.552
444.10 1.552
444.20 1.551
444.30 1.55
444.40 1.55
444.50 1.549
444.60 1.548
444.70 1.548
444.80 1.547
444.90 1.546
445.00 1.546
445.10 1.545
445.20 1.544
445.30 1.543
445.40 1.543
445.50 1.542
445.60 1.541
445.70 1.54
445.80 1.539
445.90 1.539
446.00 1.538
446.10 1.537
446.20 1.536
446.30 1.535
446.40 1.534
446.50 1.534
446.60 1.533
446.70 1.532
446.80 1.531
446.90 1.53
447.00 1.529
447.10 1.528
447.20 1.527
447.30 1.526
447.40 1.525
447.50 1.524
447.60 1.523
447.70 1.523
447.80 1.522
447.90 1.521
448.00 1.52
448.10 1.519
448.20 1.518
448.30 1.517
448.40 1.516
448.50 1.515
448.60 1.514
448.70 1.513
448.80 1.512
448.90 1.511
449.00 1.51
449.10 1.509
449.20 1.508
449.30 1.507
449.40 1.505
449.50 1.504
449.60 1.503
449.70 1.502
449.80 1.501
449.90 1.5
450.00 1.499
450.10 1.498
450.20 1.497
450.30 1.496
450.40 1.495
450.50 1.494
450.60 1.493
450.70 1.492
450.80 1.491
450.90 1.489
451.00 1.488
451.10 1.487
451.20 1.486
451.30 1.485
451.40 1.484
451.50 1.483
451.60 1.482
451.70 1.481
451.80 1.48
451.90 1.478
452.00 1.477
452.10 1.476
452.20 1.475
452.30 1.474
452.40 1.473
452.50 1.472
452.60 1.471
452.70 1.469
452.80 1.468
452.90 1.467
453.00 1.466
453.10 1.465
453.20 1.464
453.30 1.463
453.40 1.462
453.50 1.46
453.60 1.459
453.70 1.458
453.80 1.457
453.90 1.456
454.00 1.455
454.10 1.454
