# Version 2.1 - nm, norm@500 to 1, cut digits, bergeron_6000_90.dat_6000
# Wavelength(nm)  Flambda(ergs/cm^s/s/nm)
300.00 0.6814
300.10 0.6819
300.20 0.6824
300.30 0.6829
300.40 0.6833
300.50 0.6838
300.60 0.6843
300.70 0.6848
300.80 0.6853
300.90 0.6858
301.00 0.6862
301.10 0.6867
301.20 0.6872
301.30 0.6877
301.40 0.6882
301.50 0.6886
301.60 0.6891
301.70 0.6896
301.80 0.6901
301.90 0.6905
302.00 0.691
302.10 0.6915
302.20 0.692
302.30 0.6925
302.40 0.693
302.50 0.6934
302.60 0.6939
302.70 0.6944
302.80 0.6949
302.90 0.6953
303.00 0.6958
303.10 0.6963
303.20 0.6968
303.30 0.6973
303.40 0.6977
303.50 0.6982
303.60 0.6987
303.70 0.6991
303.80 0.6996
303.90 0.7001
304.00 0.7006
304.10 0.701
304.20 0.7015
304.30 0.702
304.40 0.7025
304.50 0.7029
304.60 0.7034
304.70 0.7039
304.80 0.7043
304.90 0.7048
305.00 0.7053
305.10 0.7057
305.20 0.7062
305.30 0.7067
305.40 0.7072
305.50 0.7076
305.60 0.7081
305.70 0.7085
305.80 0.709
305.90 0.7095
306.00 0.7099
306.10 0.7104
306.20 0.7109
306.30 0.7113
306.40 0.7118
306.50 0.7123
306.60 0.7128
306.70 0.7132
306.80 0.7137
306.90 0.7142
307.00 0.7146
307.10 0.7151
307.20 0.7155
307.30 0.716
307.40 0.7165
307.50 0.7169
307.60 0.7174
307.70 0.7178
307.80 0.7183
307.90 0.7188
308.00 0.7192
308.10 0.7197
308.20 0.7202
308.30 0.7206
308.40 0.7211
308.50 0.7215
308.60 0.722
308.70 0.7225
308.80 0.7229
308.90 0.7234
309.00 0.7238
309.10 0.7243
309.20 0.7247
309.30 0.7252
309.40 0.7257
309.50 0.7261
309.60 0.7266
309.70 0.727
309.80 0.7275
309.90 0.7279
310.00 0.7284
310.10 0.7288
310.20 0.7293
310.30 0.7297
310.40 0.7302
310.50 0.7307
310.60 0.7311
310.70 0.7316
310.80 0.732
310.90 0.7325
311.00 0.7329
311.10 0.7334
311.20 0.7338
311.30 0.7343
311.40 0.7347
311.50 0.7352
311.60 0.7356
311.70 0.736
311.80 0.7365
311.90 0.7369
312.00 0.7374
312.10 0.7378
312.20 0.7383
312.30 0.7387
312.40 0.7391
312.50 0.7396
312.60 0.74
312.70 0.7405
312.80 0.7409
312.90 0.7414
313.00 0.7418
313.10 0.7423
313.20 0.7427
313.30 0.7431
313.40 0.7436
313.50 0.744
313.60 0.7445
313.70 0.7449
313.80 0.7454
313.90 0.7458
314.00 0.7462
314.10 0.7467
314.20 0.7471
314.30 0.7476
314.40 0.748
314.50 0.7484
314.60 0.7489
314.70 0.7493
314.80 0.7498
314.90 0.7502
315.00 0.7506
315.10 0.7511
315.20 0.7515
315.30 0.7519
315.40 0.7524
315.50 0.7528
315.60 0.7533
315.70 0.7537
315.80 0.7541
315.90 0.7545
316.00 0.755
316.10 0.7554
316.20 0.7558
316.30 0.7563
316.40 0.7567
316.50 0.7572
316.60 0.7576
316.70 0.758
316.80 0.7584
316.90 0.7589
317.00 0.7593
317.10 0.7597
317.20 0.7602
317.30 0.7606
317.40 0.761
317.50 0.7614
317.60 0.7619
317.70 0.7623
317.80 0.7627
317.90 0.7631
318.00 0.7636
318.10 0.764
318.20 0.7644
318.30 0.7648
318.40 0.7653
318.50 0.7657
318.60 0.7661
318.70 0.7665
318.80 0.767
318.90 0.7674
319.00 0.7678
319.10 0.7682
319.20 0.7687
319.30 0.7691
319.40 0.7695
319.50 0.7699
319.60 0.7703
319.70 0.7707
319.80 0.7712
319.90 0.7716
320.00 0.772
320.10 0.7724
320.20 0.7728
320.30 0.7733
320.40 0.7737
320.50 0.7741
320.60 0.7745
320.70 0.7749
320.80 0.7754
320.90 0.7758
321.00 0.7762
321.10 0.7766
321.20 0.777
321.30 0.7774
321.40 0.7779
321.50 0.7783
321.60 0.7787
321.70 0.7791
321.80 0.7795
321.90 0.7799
322.00 0.7803
322.10 0.7808
322.20 0.7812
322.30 0.7816
322.40 0.782
322.50 0.7824
322.60 0.7828
322.70 0.7832
322.80 0.7836
322.90 0.784
323.00 0.7844
323.10 0.7849
323.20 0.7853
323.30 0.7857
323.40 0.7861
323.50 0.7865
323.60 0.7869
323.70 0.7873
323.80 0.7877
323.90 0.7881
324.00 0.7885
324.10 0.7889
324.20 0.7893
324.30 0.7897
324.40 0.7901
324.50 0.7905
324.60 0.7909
324.70 0.7913
324.80 0.7917
324.90 0.7921
325.00 0.7925
325.10 0.7929
325.20 0.7933
325.30 0.7937
325.40 0.7941
325.50 0.7945
325.60 0.7949
325.70 0.7953
325.80 0.7957
325.90 0.7961
326.00 0.7965
326.10 0.7969
326.20 0.7973
326.30 0.7977
326.40 0.7981
326.50 0.7985
326.60 0.7989
326.70 0.7993
326.80 0.7997
326.90 0.8001
327.00 0.8005
327.10 0.8009
327.20 0.8013
327.30 0.8017
327.40 0.8021
327.50 0.8024
327.60 0.8028
327.70 0.8032
327.80 0.8036
327.90 0.804
328.00 0.8044
328.10 0.8048
328.20 0.8052
328.30 0.8056
328.40 0.806
328.50 0.8063
328.60 0.8067
328.70 0.8071
328.80 0.8075
328.90 0.8079
329.00 0.8083
329.10 0.8087
329.20 0.8091
329.30 0.8094
329.40 0.8098
329.50 0.8102
329.60 0.8106
329.70 0.811
329.80 0.8114
329.90 0.8117
330.00 0.8121
330.10 0.8125
330.20 0.8129
330.30 0.8133
330.40 0.8137
330.50 0.814
330.60 0.8144
330.70 0.8148
330.80 0.8152
330.90 0.8156
331.00 0.8159
331.10 0.8163
331.20 0.8167
331.30 0.8171
331.40 0.8175
331.50 0.8178
331.60 0.8182
331.70 0.8186
331.80 0.819
331.90 0.8193
332.00 0.8197
332.10 0.8201
332.20 0.8205
332.30 0.8208
332.40 0.8212
332.50 0.8216
332.60 0.822
332.70 0.8223
332.80 0.8227
332.90 0.8231
333.00 0.8235
333.10 0.8238
333.20 0.8242
333.30 0.8246
333.40 0.8249
333.50 0.8253
333.60 0.8257
333.70 0.826
333.80 0.8264
333.90 0.8268
334.00 0.8271
334.10 0.8275
334.20 0.8279
334.30 0.8283
334.40 0.8286
334.50 0.829
334.60 0.8294
334.70 0.8297
334.80 0.8301
334.90 0.8305
335.00 0.8308
335.10 0.8312
335.20 0.8316
335.30 0.8319
335.40 0.8323
335.50 0.8326
335.60 0.833
335.70 0.8334
335.80 0.8337
335.90 0.8341
336.00 0.8344
336.10 0.8348
336.20 0.8352
336.30 0.8355
336.40 0.8359
336.50 0.8363
336.60 0.8366
336.70 0.837
336.80 0.8373
336.90 0.8377
337.00 0.838
337.10 0.8384
337.20 0.8388
337.30 0.8391
337.40 0.8395
337.50 0.8398
337.60 0.8402
337.70 0.8405
337.80 0.8409
337.90 0.8412
338.00 0.8416
338.10 0.8419
338.20 0.8423
338.30 0.8427
338.40 0.843
338.50 0.8434
338.60 0.8437
338.70 0.8441
338.80 0.8444
338.90 0.8448
339.00 0.8451
339.10 0.8455
339.20 0.8458
339.30 0.8462
339.40 0.8465
339.50 0.8468
339.60 0.8472
339.70 0.8475
339.80 0.8479
339.90 0.8482
340.00 0.8486
340.10 0.8489
340.20 0.8493
340.30 0.8496
340.40 0.85
340.50 0.8503
340.60 0.8506
340.70 0.851
340.80 0.8513
340.90 0.8517
341.00 0.852
341.10 0.8524
341.20 0.8527
341.30 0.853
341.40 0.8534
341.50 0.8537
341.60 0.8541
341.70 0.8544
341.80 0.8547
341.90 0.8551
342.00 0.8554
342.10 0.8557
342.20 0.8561
342.30 0.8564
342.40 0.8568
342.50 0.8571
342.60 0.8574
342.70 0.8578
342.80 0.8581
342.90 0.8584
343.00 0.8588
343.10 0.8591
343.20 0.8594
343.30 0.8598
343.40 0.8601
343.50 0.8604
343.60 0.8608
343.70 0.8611
343.80 0.8614
343.90 0.8617
344.00 0.8621
344.10 0.8624
344.20 0.8627
344.30 0.8631
344.40 0.8634
344.50 0.8637
344.60 0.8641
344.70 0.8644
344.80 0.8647
344.90 0.8651
345.00 0.8654
345.10 0.8657
345.20 0.866
345.30 0.8664
345.40 0.8667
345.50 0.867
345.60 0.8673
345.70 0.8677
345.80 0.868
345.90 0.8683
346.00 0.8686
346.10 0.869
346.20 0.8693
346.30 0.8696
346.40 0.8699
346.50 0.8703
346.60 0.8706
346.70 0.8709
346.80 0.8712
346.90 0.8715
347.00 0.8719
347.10 0.8722
347.20 0.8725
347.30 0.8728
347.40 0.8731
347.50 0.8734
347.60 0.8738
347.70 0.8741
347.80 0.8744
347.90 0.8747
348.00 0.875
348.10 0.8753
348.20 0.8757
348.30 0.876
348.40 0.8763
348.50 0.8766
348.60 0.8769
348.70 0.8772
348.80 0.8775
348.90 0.8778
349.00 0.8782
349.10 0.8785
349.20 0.8788
349.30 0.8791
349.40 0.8794
349.50 0.8797
349.60 0.88
349.70 0.8803
349.80 0.8806
349.90 0.8809
350.00 0.8812
350.10 0.8816
350.20 0.8819
350.30 0.8822
350.40 0.8825
350.50 0.8828
350.60 0.8831
350.70 0.8834
350.80 0.8837
350.90 0.884
351.00 0.8843
351.10 0.8846
351.20 0.8849
351.30 0.8852
351.40 0.8855
351.50 0.8858
351.60 0.8861
351.70 0.8864
351.80 0.8867
351.90 0.887
352.00 0.8874
352.10 0.8877
352.20 0.888
352.30 0.8883
352.40 0.8885
352.50 0.8888
352.60 0.8891
352.70 0.8894
352.80 0.8897
352.90 0.89
353.00 0.8903
353.10 0.8906
353.20 0.8909
353.30 0.8912
353.40 0.8915
353.50 0.8918
353.60 0.8921
353.70 0.8924
353.80 0.8927
353.90 0.893
354.00 0.8933
354.10 0.8936
354.20 0.8939
354.30 0.8941
354.40 0.8944
354.50 0.8947
354.60 0.895
354.70 0.8953
354.80 0.8956
354.90 0.8959
355.00 0.8962
355.10 0.8965
355.20 0.8968
355.30 0.8971
355.40 0.8973
355.50 0.8976
355.60 0.8979
355.70 0.8982
355.80 0.8985
355.90 0.8988
356.00 0.8991
356.10 0.8993
356.20 0.8996
356.30 0.8999
356.40 0.9002
356.50 0.9005
356.60 0.9008
356.70 0.901
356.80 0.9013
356.90 0.9016
357.00 0.9019
357.10 0.9022
357.20 0.9025
357.30 0.9027
357.40 0.903
357.50 0.9033
357.60 0.9036
357.70 0.9039
357.80 0.9041
357.90 0.9044
358.00 0.9047
358.10 0.905
358.20 0.9052
358.30 0.9055
358.40 0.9058
358.50 0.9061
358.60 0.9064
358.70 0.9066
358.80 0.9069
358.90 0.9072
359.00 0.9075
359.10 0.9077
359.20 0.908
359.30 0.9083
359.40 0.9086
359.50 0.9088
359.60 0.9091
359.70 0.9094
359.80 0.9097
359.90 0.9099
360.00 0.9102
360.10 0.9105
360.20 0.9107
360.30 0.911
360.40 0.9113
360.50 0.9116
360.60 0.9118
360.70 0.9121
360.80 0.9124
360.90 0.9126
361.00 0.9129
361.10 0.9132
361.20 0.9134
361.30 0.9137
361.40 0.914
361.50 0.9142
361.60 0.9145
361.70 0.9148
361.80 0.915
361.90 0.9153
362.00 0.9155
362.10 0.9158
362.20 0.9161
362.30 0.9163
362.40 0.9166
362.50 0.9169
362.60 0.9171
362.70 0.9174
362.80 0.9176
362.90 0.9179
363.00 0.9182
363.10 0.9184
363.20 0.9187
363.30 0.9189
363.40 0.9192
363.50 0.9195
363.60 0.9197
363.70 0.92
363.80 0.9202
363.90 0.9205
364.00 0.9207
364.10 0.921
364.20 0.9212
364.30 0.9215
364.40 0.9218
364.50 0.922
364.60 0.9223
364.70 0.9225
364.80 0.9228
364.90 0.923
365.00 0.9233
365.10 0.9235
365.20 0.9238
365.30 0.924
365.40 0.9243
365.50 0.9245
365.60 0.9248
365.70 0.925
365.80 0.9253
365.90 0.9255
366.00 0.9258
366.10 0.926
366.20 0.9263
366.30 0.9265
366.40 0.9267
366.50 0.927
366.60 0.9272
366.70 0.9275
366.80 0.9277
366.90 0.928
367.00 0.9282
367.10 0.9285
367.20 0.9287
367.30 0.929
367.40 0.9292
367.50 0.9294
367.60 0.9297
367.70 0.9299
367.80 0.9302
367.90 0.9304
368.00 0.9306
368.10 0.9309
368.20 0.9311
368.30 0.9314
368.40 0.9316
368.50 0.9319
368.60 0.9321
368.70 0.9323
368.80 0.9326
368.90 0.9328
369.00 0.9331
369.10 0.9333
369.20 0.9335
369.30 0.9338
369.40 0.934
369.50 0.9343
369.60 0.9345
369.70 0.9347
369.80 0.935
369.90 0.9352
370.00 0.9354
370.10 0.9357
370.20 0.9359
370.30 0.9361
370.40 0.9364
370.50 0.9366
370.60 0.9368
370.70 0.9371
370.80 0.9373
370.90 0.9375
371.00 0.9378
371.10 0.938
371.20 0.9382
371.30 0.9384
371.40 0.9387
371.50 0.9389
371.60 0.9391
371.70 0.9394
371.80 0.9396
371.90 0.9398
372.00 0.94
372.10 0.9403
372.20 0.9405
372.30 0.9407
372.40 0.9409
372.50 0.9412
372.60 0.9414
372.70 0.9416
372.80 0.9418
372.90 0.9421
373.00 0.9423
373.10 0.9425
373.20 0.9427
373.30 0.943
373.40 0.9432
373.50 0.9434
373.60 0.9436
373.70 0.9439
373.80 0.9441
373.90 0.9443
374.00 0.9445
374.10 0.9447
374.20 0.945
374.30 0.9452
374.40 0.9454
374.50 0.9456
374.60 0.9458
374.70 0.946
374.80 0.9463
374.90 0.9465
375.00 0.9467
375.10 0.9469
375.20 0.9471
375.30 0.9473
375.40 0.9476
375.50 0.9478
375.60 0.948
375.70 0.9482
375.80 0.9484
375.90 0.9486
376.00 0.9488
376.10 0.9491
376.20 0.9493
376.30 0.9495
376.40 0.9497
376.50 0.9499
376.60 0.9501
376.70 0.9503
376.80 0.9505
376.90 0.9508
377.00 0.951
377.10 0.9512
377.20 0.9514
377.30 0.9516
377.40 0.9518
377.50 0.952
377.60 0.9522
377.70 0.9524
377.80 0.9526
377.90 0.9528
378.00 0.953
378.10 0.9532
378.20 0.9534
378.30 0.9537
378.40 0.9539
378.50 0.9541
378.60 0.9543
378.70 0.9545
378.80 0.9547
378.90 0.9549
379.00 0.9551
379.10 0.9553
379.20 0.9555
379.30 0.9557
379.40 0.9559
379.50 0.9561
379.60 0.9563
379.70 0.9565
379.80 0.9567
379.90 0.9569
380.00 0.9571
380.10 0.9573
380.20 0.9575
380.30 0.9577
380.40 0.9579
380.50 0.9581
380.60 0.9583
380.70 0.9585
380.80 0.9587
380.90 0.9589
381.00 0.9591
381.10 0.9593
381.20 0.9594
381.30 0.9596
381.40 0.9598
381.50 0.96
381.60 0.9602
381.70 0.9604
381.80 0.9606
381.90 0.9608
382.00 0.961
382.10 0.9612
382.20 0.9614
382.30 0.9616
382.40 0.9618
382.50 0.9619
382.60 0.9621
382.70 0.9623
382.80 0.9625
382.90 0.9627
383.00 0.9629
383.10 0.9631
383.20 0.9633
383.30 0.9634
383.40 0.9636
383.50 0.9636
383.60 0.9639
383.70 0.9642
383.80 0.9644
383.90 0.9646
384.00 0.9648
384.10 0.965
384.20 0.9651
384.30 0.9653
384.40 0.9655
384.50 0.9657
384.60 0.9659
384.70 0.9661
384.80 0.9663
384.90 0.9664
385.00 0.9666
385.10 0.9668
385.20 0.967
385.30 0.9672
385.40 0.9674
385.50 0.9675
385.60 0.9677
385.70 0.9679
385.80 0.9681
385.90 0.9683
386.00 0.9684
386.10 0.9686
386.20 0.9688
386.30 0.969
386.40 0.9692
386.50 0.9693
386.60 0.9695
386.70 0.9697
386.80 0.9699
386.90 0.97
387.00 0.9702
387.10 0.9704
387.20 0.9705
387.30 0.9707
387.40 0.9709
387.50 0.9711
387.60 0.9712
387.70 0.9714
387.80 0.9716
387.90 0.9717
388.00 0.9719
388.10 0.972
388.20 0.9722
388.30 0.9723
388.40 0.9725
388.50 0.9726
388.60 0.9727
388.70 0.9728
388.80 0.9727
388.90 0.9725
389.00 0.9731
389.10 0.9735
389.20 0.9737
389.30 0.974
389.40 0.9742
389.50 0.9744
389.60 0.9746
389.70 0.9748
389.80 0.975
389.90 0.9752
390.00 0.9753
390.10 0.9755
390.20 0.9757
390.30 0.9759
390.40 0.976
390.50 0.9762
390.60 0.9764
390.70 0.9766
390.80 0.9767
390.90 0.9769
391.00 0.9771
391.10 0.9772
391.20 0.9774
391.30 0.9776
391.40 0.9777
391.50 0.9779
391.60 0.9781
391.70 0.9782
391.80 0.9784
391.90 0.9785
392.00 0.9787
392.10 0.9789
392.20 0.979
392.30 0.9792
392.40 0.9794
392.50 0.9795
392.60 0.9797
392.70 0.9798
392.80 0.98
392.90 0.9802
393.00 0.9803
393.10 0.9805
393.20 0.9806
393.30 0.9808
393.40 0.9809
393.50 0.9811
393.60 0.9812
393.70 0.9814
393.80 0.9815
393.90 0.9817
394.00 0.9818
394.10 0.982
394.20 0.9821
394.30 0.9823
394.40 0.9824
394.50 0.9826
394.60 0.9827
394.70 0.9829
394.80 0.983
394.90 0.9831
395.00 0.9833
395.10 0.9834
395.20 0.9835
395.30 0.9836
395.40 0.9837
395.50 0.9839
395.60 0.984
395.70 0.984
395.80 0.9841
395.90 0.9842
396.00 0.9843
396.10 0.9843
396.20 0.9844
396.30 0.9844
396.40 0.9844
396.50 0.9843
396.60 0.9843
396.70 0.9842
396.80 0.984
396.90 0.9835
397.00 0.9828
397.10 0.9838
397.20 0.9845
397.30 0.985
397.40 0.9854
397.50 0.9858
397.60 0.9861
397.70 0.9864
397.80 0.9867
397.90 0.987
398.00 0.9872
398.10 0.9875
398.20 0.9877
398.30 0.9879
398.40 0.9881
398.50 0.9883
398.60 0.9885
398.70 0.9886
398.80 0.9888
398.90 0.989
399.00 0.9891
399.10 0.9893
399.20 0.9895
399.30 0.9896
399.40 0.9898
399.50 0.9899
399.60 0.9901
399.70 0.9903
399.80 0.9904
399.90 0.9905
400.00 0.9907
400.10 0.9908
400.20 0.991
400.30 0.9911
400.40 0.9913
400.50 0.9914
400.60 0.9915
400.70 0.9917
400.80 0.9918
400.90 0.992
401.00 0.9921
401.10 0.9922
401.20 0.9924
401.30 0.9925
401.40 0.9926
401.50 0.9928
401.60 0.9929
401.70 0.9931
401.80 0.9932
401.90 0.9933
402.00 0.9934
402.10 0.9936
402.20 0.9937
402.30 0.9938
402.40 0.994
402.50 0.9941
402.60 0.9942
402.70 0.9944
402.80 0.9945
402.90 0.9946
403.00 0.9947
403.10 0.9949
403.20 0.995
403.30 0.9951
403.40 0.9952
403.50 0.9954
403.60 0.9955
403.70 0.9956
403.80 0.9957
403.90 0.9959
404.00 0.996
404.10 0.9961
404.20 0.9962
404.30 0.9964
404.40 0.9965
404.50 0.9966
404.60 0.9967
404.70 0.9968
404.80 0.9969
404.90 0.9971
405.00 0.9972
405.10 0.9973
405.20 0.9974
405.30 0.9975
405.40 0.9976
405.50 0.9978
405.60 0.9979
405.70 0.998
405.80 0.9981
405.90 0.9982
406.00 0.9983
406.10 0.9984
406.20 0.9985
406.30 0.9986
406.40 0.9987
406.50 0.9988
406.60 0.9989
406.70 0.999
406.80 0.9991
406.90 0.9992
407.00 0.9993
407.10 0.9994
407.20 0.9995
407.30 0.9996
407.40 0.9997
407.50 0.9997
407.60 0.9998
407.70 0.9999
407.80 0.9999
407.90 1
408.00 1
408.10 1
408.20 1
408.30 1
408.40 1
408.50 1
408.60 1
408.70 1
408.80 0.9999
408.90 0.9998
409.00 0.9997
409.10 0.9995
409.20 0.9992
409.30 0.999
409.40 0.9986
409.50 0.9981
409.60 0.9975
409.70 0.9968
409.80 0.9959
409.90 0.9949
410.00 0.9937
410.10 0.9925
410.20 0.9911
410.30 0.9932
410.40 0.9949
410.50 0.9962
410.60 0.9973
410.70 0.9983
410.80 0.9992
410.90 0.9999
411.00 1.001
411.10 1.001
411.20 1.002
411.30 1.002
411.40 1.002
411.50 1.003
411.60 1.003
411.70 1.003
411.80 1.004
411.90 1.004
412.00 1.004
412.10 1.004
412.20 1.004
412.30 1.005
412.40 1.005
412.50 1.005
412.60 1.005
412.70 1.005
412.80 1.005
412.90 1.005
413.00 1.006
413.10 1.006
413.20 1.006
413.30 1.006
413.40 1.006
413.50 1.006
413.60 1.006
413.70 1.006
413.80 1.007
413.90 1.007
414.00 1.007
414.10 1.007
414.20 1.007
414.30 1.007
414.40 1.007
414.50 1.007
414.60 1.007
414.70 1.007
414.80 1.008
414.90 1.008
415.00 1.008
415.10 1.008
415.20 1.008
415.30 1.008
415.40 1.008
415.50 1.008
415.60 1.008
415.70 1.008
415.80 1.009
415.90 1.009
416.00 1.009
416.10 1.009
416.20 1.009
416.30 1.009
416.40 1.009
416.50 1.009
416.60 1.009
416.70 1.009
416.80 1.009
416.90 1.01
417.00 1.01
417.10 1.01
417.20 1.01
417.30 1.01
417.40 1.01
417.50 1.01
417.60 1.01
417.70 1.01
417.80 1.01
417.90 1.01
418.00 1.01
418.10 1.011
418.20 1.011
418.30 1.011
418.40 1.011
418.50 1.011
418.60 1.011
418.70 1.011
418.80 1.011
418.90 1.011
419.00 1.011
419.10 1.011
419.20 1.011
419.30 1.012
419.40 1.012
419.50 1.012
419.60 1.012
419.70 1.012
419.80 1.012
419.90 1.012
420.00 1.012
420.10 1.012
420.20 1.012
420.30 1.012
420.40 1.012
420.50 1.012
420.60 1.013
420.70 1.013
420.80 1.013
420.90 1.013
421.00 1.013
421.10 1.013
421.20 1.013
421.30 1.013
421.40 1.013
421.50 1.013
421.60 1.013
421.70 1.013
421.80 1.013
421.90 1.013
422.00 1.014
422.10 1.014
422.20 1.014
422.30 1.014
422.40 1.014
422.50 1.014
422.60 1.014
422.70 1.014
422.80 1.014
422.90 1.014
423.00 1.014
423.10 1.014
423.20 1.014
423.30 1.014
423.40 1.014
423.50 1.015
423.60 1.015
423.70 1.015
423.80 1.015
423.90 1.015
424.00 1.015
424.10 1.015
424.20 1.015
424.30 1.015
424.40 1.015
424.50 1.015
424.60 1.015
424.70 1.015
424.80 1.015
424.90 1.015
425.00 1.015
425.10 1.016
425.20 1.016
425.30 1.016
425.40 1.016
425.50 1.016
425.60 1.016
425.70 1.016
425.80 1.016
425.90 1.016
426.00 1.016
426.10 1.016
426.20 1.016
426.30 1.016
426.40 1.016
426.50 1.016
426.60 1.016
426.70 1.016
426.80 1.016
426.90 1.017
427.00 1.017
427.10 1.017
427.20 1.017
427.30 1.017
427.40 1.017
427.50 1.017
427.60 1.017
427.70 1.017
427.80 1.017
427.90 1.017
428.00 1.017
428.10 1.017
428.20 1.017
428.30 1.017
428.40 1.017
428.50 1.017
428.60 1.017
428.70 1.017
428.80 1.017
428.90 1.017
429.00 1.017
429.10 1.017
429.20 1.018
429.30 1.018
429.40 1.018
429.50 1.018
429.60 1.018
429.70 1.018
429.80 1.018
429.90 1.018
430.00 1.018
430.10 1.018
430.20 1.018
430.30 1.018
430.40 1.018
430.50 1.018
430.60 1.018
430.70 1.018
430.80 1.018
430.90 1.018
431.00 1.018
431.10 1.018
431.20 1.018
431.30 1.018
431.40 1.018
431.50 1.018
431.60 1.017
431.70 1.017
431.80 1.017
431.90 1.017
432.00 1.017
432.10 1.017
432.20 1.017
432.30 1.016
432.40 1.016
432.50 1.016
432.60 1.015
432.70 1.015
432.80 1.014
432.90 1.014
433.00 1.013
433.10 1.012
433.20 1.01
433.30 1.009
433.40 1.007
433.50 1.005
433.60 1.002
433.70 0.9987
433.80 0.9948
433.90 0.9904
434.00 0.9836
434.10 0.9838
434.20 0.991
434.30 0.9954
434.40 0.9993
434.50 1.003
434.60 1.006
434.70 1.008
434.80 1.01
434.90 1.011
435.00 1.013
435.10 1.014
435.20 1.015
435.30 1.015
435.40 1.016
435.50 1.017
435.60 1.017
435.70 1.017
435.80 1.018
435.90 1.018
436.00 1.018
436.10 1.019
436.20 1.019
436.30 1.019
436.40 1.019
436.50 1.019
436.60 1.02
436.70 1.02
436.80 1.02
436.90 1.02
437.00 1.02
437.10 1.02
437.20 1.02
437.30 1.02
437.40 1.02
437.50 1.02
437.60 1.021
437.70 1.021
437.80 1.021
437.90 1.021
438.00 1.021
438.10 1.021
438.20 1.021
438.30 1.021
438.40 1.021
438.50 1.021
438.60 1.021
438.70 1.021
438.80 1.021
438.90 1.021
439.00 1.021
439.10 1.021
439.20 1.021
439.30 1.021
439.40 1.021
439.50 1.022
439.60 1.022
439.70 1.022
439.80 1.022
439.90 1.022
440.00 1.022
440.10 1.022
440.20 1.022
440.30 1.022
440.40 1.022
440.50 1.022
440.60 1.022
440.70 1.022
440.80 1.022
440.90 1.022
441.00 1.022
441.10 1.022
441.20 1.022
441.30 1.022
441.40 1.022
441.50 1.022
441.60 1.022
441.70 1.022
441.80 1.022
441.90 1.022
442.00 1.022
442.10 1.022
442.20 1.022
442.30 1.022
442.40 1.022
442.50 1.022
442.60 1.022
442.70 1.022
442.80 1.022
442.90 1.022
443.00 1.022
443.10 1.022
443.20 1.022
443.30 1.023
443.40 1.023
443.50 1.023
443.60 1.023
443.70 1.023
443.80 1.023
443.90 1.023
444.00 1.023
444.10 1.023
444.20 1.023
444.30 1.023
444.40 1.023
444.50 1.023
444.60 1.023
444.70 1.023
444.80 1.023
444.90 1.023
445.00 1.023
445.10 1.023
445.20 1.023
445.30 1.023
445.40 1.023
445.50 1.023
445.60 1.023
445.70 1.023
