# Version 2.1 - nm, norm@500 to 1, cut digits, bergeron_10500_75.dat_10500
# Wavelength(nm)  Flambda(ergs/cm^s/s/nm)
300.00 1.561
300.10 1.56
300.20 1.559
300.30 1.559
300.40 1.558
300.50 1.557
300.60 1.556
300.70 1.556
300.80 1.555
300.90 1.554
301.00 1.553
301.10 1.552
301.20 1.552
301.30 1.551
301.40 1.55
301.50 1.549
301.60 1.549
301.70 1.548
301.80 1.547
301.90 1.546
302.00 1.546
302.10 1.545
302.20 1.544
302.30 1.543
302.40 1.543
302.50 1.542
302.60 1.541
302.70 1.54
302.80 1.54
302.90 1.539
303.00 1.538
303.10 1.537
303.20 1.537
303.30 1.536
303.40 1.535
303.50 1.534
303.60 1.534
303.70 1.533
303.80 1.532
303.90 1.531
304.00 1.531
304.10 1.53
304.20 1.529
304.30 1.528
304.40 1.528
304.50 1.527
304.60 1.526
304.70 1.525
304.80 1.525
304.90 1.524
305.00 1.523
305.10 1.522
305.20 1.522
305.30 1.521
305.40 1.52
305.50 1.519
305.60 1.519
305.70 1.518
305.80 1.517
305.90 1.516
306.00 1.516
306.10 1.515
306.20 1.514
306.30 1.513
306.40 1.513
306.50 1.512
306.60 1.511
306.70 1.51
306.80 1.51
306.90 1.509
307.00 1.508
307.10 1.507
307.20 1.507
307.30 1.506
307.40 1.505
307.50 1.505
307.60 1.504
307.70 1.503
307.80 1.502
307.90 1.502
308.00 1.501
308.10 1.5
308.20 1.499
308.30 1.499
308.40 1.498
308.50 1.497
308.60 1.496
308.70 1.496
308.80 1.495
308.90 1.494
309.00 1.493
309.10 1.493
309.20 1.492
309.30 1.491
309.40 1.49
309.50 1.49
309.60 1.489
309.70 1.488
309.80 1.488
309.90 1.487
310.00 1.486
310.10 1.485
310.20 1.485
310.30 1.484
310.40 1.483
310.50 1.482
310.60 1.482
310.70 1.481
310.80 1.48
310.90 1.479
311.00 1.479
311.10 1.478
311.20 1.477
311.30 1.477
311.40 1.476
311.50 1.475
311.60 1.474
311.70 1.474
311.80 1.473
311.90 1.472
312.00 1.471
312.10 1.471
312.20 1.47
312.30 1.469
312.40 1.469
312.50 1.468
312.60 1.467
312.70 1.466
312.80 1.466
312.90 1.465
313.00 1.464
313.10 1.463
313.20 1.463
313.30 1.462
313.40 1.461
313.50 1.461
313.60 1.46
313.70 1.459
313.80 1.458
313.90 1.458
314.00 1.457
314.10 1.456
314.20 1.456
314.30 1.455
314.40 1.454
314.50 1.453
314.60 1.453
314.70 1.452
314.80 1.451
314.90 1.45
315.00 1.45
315.10 1.449
315.20 1.448
315.30 1.448
315.40 1.447
315.50 1.446
315.60 1.445
315.70 1.445
315.80 1.444
315.90 1.443
316.00 1.443
316.10 1.442
316.20 1.441
316.30 1.44
316.40 1.44
316.50 1.439
316.60 1.438
316.70 1.438
316.80 1.437
316.90 1.436
317.00 1.435
317.10 1.435
317.20 1.434
317.30 1.433
317.40 1.433
317.50 1.432
317.60 1.431
317.70 1.43
317.80 1.43
317.90 1.429
318.00 1.428
318.10 1.428
318.20 1.427
318.30 1.426
318.40 1.425
318.50 1.425
318.60 1.424
318.70 1.423
318.80 1.423
318.90 1.422
319.00 1.421
319.10 1.42
319.20 1.42
319.30 1.419
319.40 1.418
319.50 1.418
319.60 1.417
319.70 1.416
319.80 1.416
319.90 1.415
320.00 1.414
320.10 1.413
320.20 1.413
320.30 1.412
320.40 1.411
320.50 1.411
320.60 1.41
320.70 1.409
320.80 1.408
320.90 1.408
321.00 1.407
321.10 1.406
321.20 1.406
321.30 1.405
321.40 1.404
321.50 1.404
321.60 1.403
321.70 1.402
321.80 1.401
321.90 1.401
322.00 1.4
322.10 1.399
322.20 1.399
322.30 1.398
322.40 1.397
322.50 1.397
322.60 1.396
322.70 1.395
322.80 1.394
322.90 1.394
323.00 1.393
323.10 1.392
323.20 1.392
323.30 1.391
323.40 1.39
323.50 1.39
323.60 1.389
323.70 1.388
323.80 1.388
323.90 1.387
324.00 1.386
324.10 1.385
324.20 1.385
324.30 1.384
324.40 1.383
324.50 1.383
324.60 1.382
324.70 1.381
324.80 1.381
324.90 1.38
325.00 1.379
325.10 1.379
325.20 1.378
325.30 1.377
325.40 1.376
325.50 1.376
325.60 1.375
325.70 1.374
325.80 1.374
325.90 1.373
326.00 1.372
326.10 1.372
326.20 1.371
326.30 1.37
326.40 1.37
326.50 1.369
326.60 1.368
326.70 1.368
326.80 1.367
326.90 1.366
327.00 1.365
327.10 1.365
327.20 1.364
327.30 1.363
327.40 1.363
327.50 1.362
327.60 1.361
327.70 1.361
327.80 1.36
327.90 1.359
328.00 1.359
328.10 1.358
328.20 1.357
328.30 1.357
328.40 1.356
328.50 1.355
328.60 1.355
328.70 1.354
328.80 1.353
328.90 1.353
329.00 1.352
329.10 1.351
329.20 1.351
329.30 1.35
329.40 1.349
329.50 1.349
329.60 1.348
329.70 1.347
329.80 1.346
329.90 1.346
330.00 1.345
330.10 1.344
330.20 1.344
330.30 1.343
330.40 1.342
330.50 1.342
330.60 1.341
330.70 1.34
330.80 1.34
330.90 1.339
331.00 1.338
331.10 1.338
331.20 1.337
331.30 1.336
331.40 1.336
331.50 1.335
331.60 1.334
331.70 1.334
331.80 1.333
331.90 1.332
332.00 1.332
332.10 1.331
332.20 1.33
332.30 1.33
332.40 1.329
332.50 1.328
332.60 1.328
332.70 1.327
332.80 1.326
332.90 1.326
333.00 1.325
333.10 1.324
333.20 1.324
333.30 1.323
333.40 1.322
333.50 1.322
333.60 1.321
333.70 1.32
333.80 1.32
333.90 1.319
334.00 1.318
334.10 1.318
334.20 1.317
334.30 1.316
334.40 1.316
334.50 1.315
334.60 1.314
334.70 1.314
334.80 1.313
334.90 1.312
335.00 1.312
335.10 1.311
335.20 1.311
335.30 1.31
335.40 1.309
335.50 1.309
335.60 1.308
335.70 1.307
335.80 1.307
335.90 1.306
336.00 1.305
336.10 1.305
336.20 1.304
336.30 1.303
336.40 1.303
336.50 1.302
336.60 1.301
336.70 1.301
336.80 1.3
336.90 1.299
337.00 1.299
337.10 1.298
337.20 1.297
337.30 1.297
337.40 1.296
337.50 1.295
337.60 1.295
337.70 1.294
337.80 1.294
337.90 1.293
338.00 1.292
338.10 1.292
338.20 1.291
338.30 1.29
338.40 1.29
338.50 1.289
338.60 1.288
338.70 1.288
338.80 1.287
338.90 1.286
339.00 1.286
339.10 1.285
339.20 1.284
339.30 1.284
339.40 1.283
339.50 1.283
339.60 1.282
339.70 1.281
339.80 1.281
339.90 1.28
340.00 1.279
340.10 1.279
340.20 1.278
340.30 1.277
340.40 1.277
340.50 1.276
340.60 1.275
340.70 1.275
340.80 1.274
340.90 1.274
341.00 1.273
341.10 1.272
341.20 1.272
341.30 1.271
341.40 1.27
341.50 1.27
341.60 1.269
341.70 1.268
341.80 1.268
341.90 1.267
342.00 1.267
342.10 1.266
342.20 1.265
342.30 1.265
342.40 1.264
342.50 1.263
342.60 1.263
342.70 1.262
342.80 1.261
342.90 1.261
343.00 1.26
343.10 1.26
343.20 1.259
343.30 1.258
343.40 1.258
343.50 1.257
343.60 1.256
343.70 1.256
343.80 1.255
343.90 1.255
344.00 1.254
344.10 1.253
344.20 1.253
344.30 1.252
344.40 1.251
344.50 1.251
344.60 1.25
344.70 1.249
344.80 1.249
344.90 1.248
345.00 1.248
345.10 1.247
345.20 1.246
345.30 1.246
345.40 1.245
345.50 1.245
345.60 1.244
345.70 1.243
345.80 1.243
345.90 1.242
346.00 1.241
346.10 1.241
346.20 1.24
346.30 1.24
346.40 1.239
346.50 1.238
346.60 1.238
346.70 1.237
346.80 1.236
346.90 1.236
347.00 1.235
347.10 1.235
347.20 1.234
347.30 1.233
347.40 1.233
347.50 1.232
347.60 1.231
347.70 1.231
347.80 1.23
347.90 1.23
348.00 1.229
348.10 1.228
348.20 1.228
348.30 1.227
348.40 1.227
348.50 1.226
348.60 1.225
348.70 1.225
348.80 1.224
348.90 1.223
349.00 1.223
349.10 1.222
349.20 1.222
349.30 1.221
349.40 1.22
349.50 1.22
349.60 1.219
349.70 1.219
349.80 1.218
349.90 1.217
350.00 1.217
350.10 1.216
350.20 1.215
350.30 1.215
350.40 1.214
350.50 1.214
350.60 1.213
350.70 1.212
350.80 1.212
350.90 1.211
351.00 1.211
351.10 1.21
351.20 1.209
351.30 1.209
351.40 1.208
351.50 1.208
351.60 1.207
351.70 1.206
351.80 1.206
351.90 1.205
352.00 1.205
352.10 1.204
352.20 1.203
352.30 1.203
352.40 1.202
352.50 1.202
352.60 1.201
352.70 1.2
352.80 1.2
352.90 1.199
353.00 1.199
353.10 1.198
353.20 1.197
353.30 1.197
353.40 1.196
353.50 1.196
353.60 1.195
353.70 1.194
353.80 1.194
353.90 1.193
354.00 1.193
354.10 1.192
354.20 1.191
354.30 1.191
354.40 1.19
354.50 1.19
354.60 1.189
354.70 1.188
354.80 1.188
354.90 1.187
355.00 1.187
355.10 1.186
355.20 1.185
355.30 1.185
355.40 1.184
355.50 1.184
355.60 1.183
355.70 1.182
355.80 1.182
355.90 1.181
356.00 1.181
356.10 1.18
356.20 1.179
356.30 1.179
356.40 1.178
356.50 1.178
356.60 1.177
356.70 1.177
356.80 1.176
356.90 1.175
357.00 1.175
357.10 1.174
357.20 1.174
357.30 1.173
357.40 1.172
357.50 1.172
357.60 1.171
357.70 1.171
357.80 1.17
357.90 1.169
358.00 1.169
358.10 1.168
358.20 1.168
358.30 1.167
358.40 1.167
358.50 1.166
358.60 1.165
358.70 1.165
358.80 1.164
358.90 1.164
359.00 1.163
359.10 1.162
359.20 1.162
359.30 1.161
359.40 1.161
359.50 1.16
359.60 1.16
359.70 1.159
359.80 1.158
359.90 1.158
360.00 1.157
360.10 1.157
360.20 1.156
360.30 1.156
360.40 1.155
360.50 1.154
360.60 1.154
360.70 1.153
360.80 1.153
360.90 1.152
361.00 1.151
361.10 1.151
361.20 1.15
361.30 1.15
361.40 1.149
361.50 1.149
361.60 1.148
361.70 1.147
361.80 1.147
361.90 1.146
362.00 1.146
362.10 1.145
362.20 1.145
362.30 1.144
362.40 1.143
362.50 1.143
362.60 1.142
362.70 1.142
362.80 1.141
362.90 1.141
363.00 1.14
363.10 1.139
363.20 1.139
363.30 1.138
363.40 1.138
363.50 1.137
363.60 1.136
363.70 1.136
363.80 1.135
363.90 1.134
364.00 1.134
364.10 1.133
364.20 1.133
364.30 1.132
364.40 1.131
364.50 1.131
364.60 1.13
364.70 1.129
364.80 1.129
364.90 1.128
365.00 1.128
365.10 1.127
365.20 1.126
365.30 1.126
365.40 1.125
365.50 1.125
365.60 1.124
365.70 1.123
365.80 1.123
365.90 1.122
366.00 1.122
366.10 1.121
366.20 1.121
366.30 1.12
366.40 1.119
366.50 1.119
366.60 1.118
366.70 1.118
366.80 1.117
366.90 1.117
367.00 1.116
367.10 1.116
367.20 1.115
367.30 1.115
367.40 1.114
367.50 1.113
367.60 1.113
367.70 1.112
367.80 1.112
367.90 1.111
368.00 1.111
368.10 1.111
368.20 1.111
368.30 1.111
368.40 1.111
368.50 1.111
368.60 1.111
368.70 1.111
368.80 1.111
368.90 1.111
369.00 1.111
369.10 1.111
369.20 1.111
369.30 1.111
369.40 1.111
369.50 1.111
369.60 1.111
369.70 1.111
369.80 1.111
369.90 1.111
370.00 1.111
370.10 1.113
370.20 1.114
370.30 1.115
370.40 1.117
370.50 1.118
370.60 1.119
370.70 1.121
370.80 1.122
370.90 1.123
371.00 1.125
371.10 1.126
371.20 1.127
371.30 1.129
371.40 1.13
371.50 1.131
371.60 1.133
371.70 1.134
371.80 1.135
371.90 1.137
372.00 1.138
372.10 1.14
372.20 1.143
372.30 1.145
372.40 1.148
372.50 1.151
372.60 1.153
372.70 1.156
372.80 1.158
372.90 1.161
373.00 1.163
373.10 1.166
373.20 1.168
373.30 1.171
373.40 1.173
373.50 1.176
373.60 1.178
373.70 1.181
373.80 1.183
373.90 1.186
374.00 1.188
374.10 1.191
374.20 1.193
374.30 1.196
374.40 1.199
374.50 1.201
374.60 1.204
374.70 1.207
374.80 1.209
374.90 1.212
375.00 1.214
375.10 1.217
375.20 1.22
375.30 1.222
375.40 1.225
375.50 1.227
375.60 1.23
375.70 1.233
375.80 1.235
375.90 1.238
376.00 1.24
376.10 1.242
376.20 1.243
376.30 1.244
376.40 1.246
376.50 1.247
376.60 1.248
376.70 1.249
376.80 1.251
376.90 1.252
377.00 1.253
377.10 1.251
377.20 1.25
377.30 1.248
377.40 1.246
377.50 1.244
377.60 1.242
377.70 1.24
377.80 1.238
377.90 1.237
378.00 1.235
378.10 1.222
378.20 1.209
378.30 1.197
378.40 1.184
378.50 1.171
378.60 1.159
378.70 1.146
378.80 1.133
378.90 1.121
379.00 1.108
379.10 1.096
379.20 1.084
379.30 1.072
379.40 1.06
379.50 1.047
379.60 1.035
379.70 1.023
379.80 1.011
379.90 0.9989
380.00 0.9869
380.10 1.006
380.20 1.025
380.30 1.043
380.40 1.062
380.50 1.081
380.60 1.1
380.70 1.118
380.80 1.137
380.90 1.156
381.00 1.174
381.10 1.18
381.20 1.187
381.30 1.193
381.40 1.199
381.50 1.205
381.60 1.205
381.70 1.204
381.80 1.2
381.90 1.194
382.00 1.186
382.10 1.176
382.20 1.163
382.30 1.136
382.40 1.108
382.50 1.08
382.60 1.053
382.70 1.025
382.80 0.9974
382.90 0.9699
383.00 0.9424
383.10 0.9149
383.20 0.8874
383.30 0.857
383.40 0.8237
383.50 0.7897
383.60 0.7968
383.70 0.8312
383.80 0.8649
383.90 0.8956
384.00 0.9281
384.10 0.9636
384.20 0.9994
384.30 1.034
384.40 1.068
384.50 1.099
384.60 1.126
384.70 1.15
384.80 1.171
384.90 1.189
385.00 1.205
385.10 1.218
385.20 1.23
385.30 1.24
385.40 1.248
385.50 1.255
385.60 1.261
385.70 1.264
385.80 1.267
385.90 1.27
386.00 1.27
386.10 1.27
386.20 1.269
386.30 1.266
386.40 1.262
386.50 1.258
386.60 1.252
386.70 1.245
386.80 1.237
386.90 1.228
387.00 1.217
387.10 1.205
387.20 1.191
387.30 1.176
387.40 1.159
387.50 1.14
387.60 1.119
387.70 1.095
387.80 1.067
387.90 1.036
388.00 1.001
388.10 0.9614
388.20 0.9194
388.30 0.8755
388.40 0.8299
388.50 0.7863
388.60 0.7449
388.70 0.705
388.80 0.6663
388.90 0.6287
389.00 0.6635
389.10 0.7007
389.20 0.7405
389.30 0.7817
389.40 0.825
389.50 0.8706
389.60 0.9153
389.70 0.9581
389.80 0.9992
389.90 1.035
390.00 1.068
390.10 1.098
390.20 1.123
390.30 1.147
390.40 1.168
390.50 1.187
390.60 1.205
390.70 1.222
390.80 1.237
390.90 1.251
391.00 1.265
391.10 1.277
391.20 1.288
391.30 1.298
391.40 1.307
391.50 1.316
391.60 1.324
391.70 1.331
391.80 1.338
391.90 1.344
392.00 1.349
392.10 1.354
392.20 1.358
392.30 1.361
392.40 1.363
392.50 1.366
392.60 1.367
392.70 1.367
392.80 1.368
392.90 1.367
393.00 1.366
393.10 1.364
393.20 1.361
393.30 1.358
393.40 1.354
393.50 1.35
393.60 1.344
393.70 1.339
393.80 1.332
393.90 1.324
394.00 1.317
394.10 1.308
394.20 1.298
394.30 1.288
394.40 1.277
394.50 1.265
394.60 1.252
394.70 1.238
394.80 1.223
394.90 1.208
395.00 1.191
395.10 1.173
395.20 1.154
395.30 1.134
395.40 1.113
395.50 1.091
395.60 1.066
395.70 1.041
395.80 1.014
395.90 0.9835
396.00 0.9507
396.10 0.9156
396.20 0.8763
396.30 0.835
396.40 0.7916
396.50 0.7458
396.60 0.7015
396.70 0.6587
396.80 0.6177
396.90 0.5706
397.00 0.5174
397.10 0.5664
397.20 0.6114
397.30 0.6523
397.40 0.6944
397.50 0.7381
397.60 0.7833
397.70 0.8266
397.80 0.8677
397.90 0.9068
398.00 0.9419
398.10 0.9747
398.20 1.005
398.30 1.032
398.40 1.057
398.50 1.082
398.60 1.104
398.70 1.125
398.80 1.145
398.90 1.164
399.00 1.183
399.10 1.2
399.20 1.216
399.30 1.232
399.40 1.247
399.50 1.26
399.60 1.274
399.70 1.286
399.80 1.298
399.90 1.31
400.00 1.321
400.10 1.331
400.20 1.34
400.30 1.35
400.40 1.358
400.50 1.367
400.60 1.375
400.70 1.382
400.80 1.389
400.90 1.396
401.00 1.402
401.10 1.408
401.20 1.414
401.30 1.419
401.40 1.424
401.50 1.429
401.60 1.433
401.70 1.437
401.80 1.44
401.90 1.444
402.00 1.447
402.10 1.45
402.20 1.452
402.30 1.454
402.40 1.456
402.50 1.458
402.60 1.46
402.70 1.461
402.80 1.462
402.90 1.463
403.00 1.463
403.10 1.464
403.20 1.464
403.30 1.464
403.40 1.464
403.50 1.463
403.60 1.462
403.70 1.461
403.80 1.46
403.90 1.459
404.00 1.457
404.10 1.455
404.20 1.453
404.30 1.451
404.40 1.448
404.50 1.445
404.60 1.442
404.70 1.439
404.80 1.436
404.90 1.432
405.00 1.428
405.10 1.423
405.20 1.419
405.30 1.414
405.40 1.409
405.50 1.403
405.60 1.397
405.70 1.391
405.80 1.385
405.90 1.378
406.00 1.371
406.10 1.363
406.20 1.355
406.30 1.347
406.40 1.338
406.50 1.329
406.60 1.32
406.70 1.31
406.80 1.3
406.90 1.289
407.00 1.278
407.10 1.266
407.20 1.254
407.30 1.24
407.40 1.227
407.50 1.213
407.60 1.198
407.70 1.182
407.80 1.166
407.90 1.149
408.00 1.131
408.10 1.112
408.20 1.093
408.30 1.072
408.40 1.051
408.50 1.029
408.60 1.006
408.70 0.9828
408.80 0.9584
408.90 0.9329
409.00 0.9065
409.10 0.8777
409.20 0.8476
409.30 0.8162
409.40 0.7821
409.50 0.7465
409.60 0.7094
409.70 0.6711
409.80 0.6332
409.90 0.5957
410.00 0.5543
410.10 0.5105
410.20 0.4645
410.30 0.5268
410.40 0.5769
410.50 0.6148
410.60 0.6524
410.70 0.69
410.80 0.7277
410.90 0.7632
411.00 0.7971
411.10 0.8294
411.20 0.8591
411.30 0.8875
411.40 0.9146
411.50 0.9394
411.60 0.9633
411.70 0.9863
411.80 1.008
411.90 1.03
412.00 1.05
412.10 1.07
412.20 1.089
412.30 1.107
412.40 1.124
412.50 1.141
412.60 1.157
412.70 1.171
412.80 1.186
412.90 1.199
413.00 1.212
413.10 1.224
413.20 1.236
413.30 1.247
413.40 1.258
413.50 1.268
413.60 1.278
413.70 1.287
413.80 1.296
413.90 1.305
414.00 1.313
414.10 1.321
414.20 1.328
414.30 1.335
414.40 1.342
414.50 1.349
414.60 1.355
414.70 1.361
414.80 1.367
414.90 1.372
415.00 1.378
415.10 1.383
415.20 1.387
415.30 1.392
415.40 1.396
415.50 1.4
415.60 1.404
415.70 1.408
415.80 1.412
415.90 1.415
416.00 1.418
416.10 1.422
416.20 1.425
416.30 1.428
416.40 1.431
416.50 1.433
416.60 1.436
416.70 1.438
416.80 1.441
416.90 1.443
417.00 1.445
417.10 1.447
417.20 1.449
417.30 1.451
417.40 1.453
417.50 1.454
417.60 1.456
417.70 1.457
417.80 1.459
417.90 1.46
418.00 1.461
418.10 1.462
418.20 1.463
418.30 1.464
418.40 1.465
418.50 1.466
418.60 1.467
418.70 1.467
418.80 1.468
418.90 1.469
419.00 1.469
419.10 1.47
419.20 1.47
419.30 1.47
419.40 1.471
419.50 1.471
419.60 1.471
419.70 1.471
419.80 1.471
419.90 1.471
420.00 1.471
420.10 1.471
420.20 1.471
420.30 1.471
420.40 1.471
420.50 1.471
420.60 1.471
420.70 1.47
420.80 1.47
420.90 1.47
421.00 1.469
421.10 1.469
421.20 1.468
421.30 1.468
421.40 1.467
421.50 1.467
421.60 1.466
421.70 1.466
421.80 1.465
421.90 1.464
422.00 1.463
422.10 1.463
422.20 1.462
422.30 1.461
422.40 1.46
422.50 1.459
422.60 1.458
422.70 1.457
422.80 1.456
422.90 1.455
423.00 1.454
423.10 1.453
423.20 1.452
423.30 1.45
423.40 1.449
423.50 1.448
423.60 1.446
423.70 1.445
423.80 1.444
423.90 1.442
424.00 1.441
424.10 1.439
424.20 1.438
424.30 1.436
424.40 1.434
424.50 1.433
424.60 1.431
424.70 1.429
424.80 1.427
424.90 1.425
425.00 1.423
425.10 1.422
425.20 1.42
425.30 1.417
425.40 1.415
425.50 1.413
425.60 1.411
425.70 1.409
425.80 1.406
425.90 1.404
426.00 1.401
426.10 1.399
426.20 1.396
426.30 1.393
426.40 1.39
426.50 1.387
426.60 1.384
426.70 1.381
426.80 1.378
426.90 1.375
427.00 1.372
427.10 1.368
427.20 1.365
427.30 1.361
427.40 1.358
427.50 1.354
427.60 1.35
427.70 1.346
427.80 1.342
427.90 1.338
428.00 1.334
428.10 1.329
428.20 1.325
428.30 1.32
428.40 1.316
428.50 1.311
428.60 1.306
428.70 1.3
428.80 1.295
428.90 1.29
429.00 1.284
429.10 1.278
429.20 1.272
429.30 1.266
429.40 1.259
429.50 1.252
429.60 1.245
429.70 1.238
429.80 1.231
429.90 1.223
430.00 1.215
430.10 1.207
430.20 1.199
430.30 1.19
430.40 1.181
430.50 1.172
430.60 1.162
430.70 1.152
430.80 1.142
430.90 1.131
431.00 1.12
431.10 1.109
431.20 1.098
431.30 1.086
431.40 1.073
431.50 1.061
431.60 1.047
431.70 1.033
431.80 1.019
431.90 1.003
432.00 0.9867
432.10 0.9697
432.20 0.9513
432.30 0.932
432.40 0.9117
432.50 0.8893
432.60 0.8657
432.70 0.841
432.80 0.815
432.90 0.7892
433.00 0.7637
433.10 0.7396
433.20 0.7153
433.30 0.6908
433.40 0.6637
433.50 0.6353
433.60 0.6055
433.70 0.5741
433.80 0.5406
433.90 0.5052
434.00 0.4264
434.10 0.4275
434.20 0.5083
434.30 0.5428
434.40 0.5756
434.50 0.6067
434.60 0.6358
434.70 0.6636
434.80 0.69
434.90 0.7138
435.00 0.7374
435.10 0.7608
435.20 0.7857
435.30 0.8106
435.40 0.8357
435.50 0.8594
435.60 0.8818
435.70 0.9031
435.80 0.9222
435.90 0.9404
436.00 0.9576
436.10 0.9734
436.20 0.9884
436.30 1.003
436.40 1.016
436.50 1.029
436.60 1.041
436.70 1.053
436.80 1.064
436.90 1.074
437.00 1.084
437.10 1.094
437.20 1.104
437.30 1.113
437.40 1.122
437.50 1.131
437.60 1.139
437.70 1.147
437.80 1.154
437.90 1.162
438.00 1.169
438.10 1.175
438.20 1.182
438.30 1.188
438.40 1.194
438.50 1.2
438.60 1.205
438.70 1.21
438.80 1.215
438.90 1.22
439.00 1.225
439.10 1.229
439.20 1.234
439.30 1.238
439.40 1.242
439.50 1.245
439.60 1.249
439.70 1.252
439.80 1.256
439.90 1.259
440.00 1.262
440.10 1.265
440.20 1.268
440.30 1.27
440.40 1.273
440.50 1.276
440.60 1.278
440.70 1.28
440.80 1.283
440.90 1.285
441.00 1.287
441.10 1.289
441.20 1.29
441.30 1.292
441.40 1.294
441.50 1.296
441.60 1.297
441.70 1.299
441.80 1.3
441.90 1.301
442.00 1.303
442.10 1.304
442.20 1.305
442.30 1.306
442.40 1.307
442.50 1.308
442.60 1.309
442.70 1.31
442.80 1.311
442.90 1.312
443.00 1.313
443.10 1.313
443.20 1.314
443.30 1.315
443.40 1.315
443.50 1.316
443.60 1.316
443.70 1.317
443.80 1.317
443.90 1.318
444.00 1.318
444.10 1.319
444.20 1.319
444.30 1.319
444.40 1.32
444.50 1.32
444.60 1.32
444.70 1.32
444.80 1.321
444.90 1.321
445.00 1.321
445.10 1.321
445.20 1.321
445.30 1.321
445.40 1.321
445.50 1.321
445.60 1.322
445.70 1.322
445.80 1.322
445.90 1.322
446.00 1.321
446.10 1.321
446.20 1.321
446.30 1.321
446.40 1.321
446.50 1.321
446.60 1.321
446.70 1.321
446.80 1.321
446.90 1.32
447.00 1.32
447.10 1.32
447.20 1.32
447.30 1.32
447.40 1.319
447.50 1.319
447.60 1.319
447.70 1.319
447.80 1.318
447.90 1.318
448.00 1.318
448.10 1.317
448.20 1.317
448.30 1.317
448.40 1.317
448.50 1.316
448.60 1.316
448.70 1.315
448.80 1.315
448.90 1.315
449.00 1.314
449.10 1.314
449.20 1.314
449.30 1.313
449.40 1.313
449.50 1.313
449.60 1.312
449.70 1.312
449.80 1.311
449.90 1.311
450.00 1.31
450.10 1.31
450.20 1.309
450.30 1.309
450.40 1.308
450.50 1.308
450.60 1.308
450.70 1.307
450.80 1.307
450.90 1.306
451.00 1.306
451.10 1.305
451.20 1.305
451.30 1.304
451.40 1.304
451.50 1.303
451.60 1.302
451.70 1.302
451.80 1.301
451.90 1.301
452.00 1.3
452.10 1.3
452.20 1.299
452.30 1.299
452.40 1.298
452.50 1.298
452.60 1.297
452.70 1.296
452.80 1.296
452.90 1.295
453.00 1.295
453.10 1.294
