# Version 2.1 - nm, norm@500 to 1, cut digits, bergeron_3750_80.dat_3750
# Wavelength(nm)  Flambda(ergs/cm^s/s/nm)
300.00 0.1544
300.10 0.1547
300.20 0.155
300.30 0.1553
300.40 0.1556
300.50 0.1559
300.60 0.1562
300.70 0.1565
300.80 0.1569
300.90 0.1572
301.00 0.1575
301.10 0.1578
301.20 0.1581
301.30 0.1584
301.40 0.1587
301.50 0.159
301.60 0.1593
301.70 0.1596
301.80 0.1599
301.90 0.1602
302.00 0.1605
302.10 0.1609
302.20 0.1612
302.30 0.1615
302.40 0.1618
302.50 0.1621
302.60 0.1625
302.70 0.1628
302.80 0.1631
302.90 0.1634
303.00 0.1637
303.10 0.164
303.20 0.1644
303.30 0.1647
303.40 0.165
303.50 0.1653
303.60 0.1656
303.70 0.1659
303.80 0.1662
303.90 0.1665
304.00 0.1669
304.10 0.1672
304.20 0.1675
304.30 0.1678
304.40 0.1682
304.50 0.1685
304.60 0.1688
304.70 0.1691
304.80 0.1695
304.90 0.1698
305.00 0.1701
305.10 0.1704
305.20 0.1707
305.30 0.1711
305.40 0.1714
305.50 0.1717
305.60 0.172
305.70 0.1723
305.80 0.1727
305.90 0.173
306.00 0.1733
306.10 0.1736
306.20 0.174
306.30 0.1743
306.40 0.1746
306.50 0.1749
306.60 0.1753
306.70 0.1756
306.80 0.1759
306.90 0.1763
307.00 0.1766
307.10 0.1769
307.20 0.1772
307.30 0.1776
307.40 0.1779
307.50 0.1782
307.60 0.1786
307.70 0.1789
307.80 0.1792
307.90 0.1795
308.00 0.1799
308.10 0.1802
308.20 0.1805
308.30 0.1809
308.40 0.1812
308.50 0.1815
308.60 0.1819
308.70 0.1822
308.80 0.1825
308.90 0.1829
309.00 0.1832
309.10 0.1835
309.20 0.1839
309.30 0.1842
309.40 0.1845
309.50 0.1849
309.60 0.1852
309.70 0.1855
309.80 0.1859
309.90 0.1862
310.00 0.1865
310.10 0.1869
310.20 0.1872
310.30 0.1876
310.40 0.1879
310.50 0.1882
310.60 0.1886
310.70 0.1889
310.80 0.1893
310.90 0.1896
311.00 0.19
311.10 0.1903
311.20 0.1906
311.30 0.191
311.40 0.1913
311.50 0.1917
311.60 0.192
311.70 0.1923
311.80 0.1927
311.90 0.193
312.00 0.1933
312.10 0.1937
312.20 0.194
312.30 0.1944
312.40 0.1947
312.50 0.1951
312.60 0.1954
312.70 0.1958
312.80 0.1961
312.90 0.1965
313.00 0.1968
313.10 0.1971
313.20 0.1975
313.30 0.1978
313.40 0.1982
313.50 0.1985
313.60 0.1989
313.70 0.1992
313.80 0.1996
313.90 0.1999
314.00 0.2003
314.10 0.2006
314.20 0.201
314.30 0.2013
314.40 0.2017
314.50 0.202
314.60 0.2024
314.70 0.2027
314.80 0.2031
314.90 0.2034
315.00 0.2038
315.10 0.2041
315.20 0.2045
315.30 0.2048
315.40 0.2052
315.50 0.2055
315.60 0.2059
315.70 0.2062
315.80 0.2066
315.90 0.2069
316.00 0.2073
316.10 0.2076
316.20 0.208
316.30 0.2084
316.40 0.2087
316.50 0.2091
316.60 0.2094
316.70 0.2098
316.80 0.2102
316.90 0.2105
317.00 0.2109
317.10 0.2112
317.20 0.2116
317.30 0.2119
317.40 0.2123
317.50 0.2126
317.60 0.213
317.70 0.2134
317.80 0.2137
317.90 0.2141
318.00 0.2144
318.10 0.2148
318.20 0.2151
318.30 0.2155
318.40 0.2159
318.50 0.2162
318.60 0.2166
318.70 0.217
318.80 0.2173
318.90 0.2177
319.00 0.2181
319.10 0.2184
319.20 0.2188
319.30 0.2192
319.40 0.2195
319.50 0.2199
319.60 0.2202
319.70 0.2206
319.80 0.221
319.90 0.2213
320.00 0.2217
320.10 0.222
320.20 0.2224
320.30 0.2228
320.40 0.2232
320.50 0.2235
320.60 0.2239
320.70 0.2243
320.80 0.2246
320.90 0.225
321.00 0.2254
321.10 0.2257
321.20 0.2261
321.30 0.2265
321.40 0.2268
321.50 0.2272
321.60 0.2276
321.70 0.2279
321.80 0.2283
321.90 0.2287
322.00 0.229
322.10 0.2294
322.20 0.2298
322.30 0.2302
322.40 0.2305
322.50 0.2309
322.60 0.2313
322.70 0.2317
322.80 0.232
322.90 0.2324
323.00 0.2328
323.10 0.2332
323.20 0.2335
323.30 0.2339
323.40 0.2343
323.50 0.2347
323.60 0.235
323.70 0.2354
323.80 0.2358
323.90 0.2361
324.00 0.2365
324.10 0.2369
324.20 0.2373
324.30 0.2377
324.40 0.238
324.50 0.2384
324.60 0.2388
324.70 0.2392
324.80 0.2396
324.90 0.2399
325.00 0.2403
325.10 0.2407
325.20 0.2411
325.30 0.2415
325.40 0.2418
325.50 0.2422
325.60 0.2426
325.70 0.243
325.80 0.2433
325.90 0.2437
326.00 0.2441
326.10 0.2445
326.20 0.2449
326.30 0.2452
326.40 0.2456
326.50 0.246
326.60 0.2464
326.70 0.2468
326.80 0.2472
326.90 0.2476
327.00 0.2479
327.10 0.2483
327.20 0.2487
327.30 0.2491
327.40 0.2495
327.50 0.2499
327.60 0.2502
327.70 0.2506
327.80 0.251
327.90 0.2514
328.00 0.2518
328.10 0.2522
328.20 0.2525
328.30 0.2529
328.40 0.2533
328.50 0.2537
328.60 0.2541
328.70 0.2545
328.80 0.2549
328.90 0.2553
329.00 0.2557
329.10 0.2561
329.20 0.2564
329.30 0.2568
329.40 0.2572
329.50 0.2576
329.60 0.258
329.70 0.2584
329.80 0.2588
329.90 0.2591
330.00 0.2595
330.10 0.2599
330.20 0.2603
330.30 0.2607
330.40 0.2611
330.50 0.2615
330.60 0.2619
330.70 0.2623
330.80 0.2627
330.90 0.2631
331.00 0.2635
331.10 0.2639
331.20 0.2643
331.30 0.2647
331.40 0.2651
331.50 0.2655
331.60 0.2658
331.70 0.2662
331.80 0.2666
331.90 0.267
332.00 0.2674
332.10 0.2678
332.20 0.2682
332.30 0.2686
332.40 0.269
332.50 0.2694
332.60 0.2698
332.70 0.2702
332.80 0.2706
332.90 0.271
333.00 0.2714
333.10 0.2718
333.20 0.2722
333.30 0.2726
333.40 0.273
333.50 0.2734
333.60 0.2738
333.70 0.2742
333.80 0.2746
333.90 0.275
334.00 0.2754
334.10 0.2758
334.20 0.2762
334.30 0.2766
334.40 0.277
334.50 0.2774
334.60 0.2778
334.70 0.2782
334.80 0.2786
334.90 0.279
335.00 0.2794
335.10 0.2798
335.20 0.2802
335.30 0.2806
335.40 0.281
335.50 0.2814
335.60 0.2818
335.70 0.2822
335.80 0.2826
335.90 0.283
336.00 0.2834
336.10 0.2838
336.20 0.2842
336.30 0.2847
336.40 0.2851
336.50 0.2855
336.60 0.2859
336.70 0.2863
336.80 0.2867
336.90 0.2871
337.00 0.2875
337.10 0.2879
337.20 0.2883
337.30 0.2887
337.40 0.2891
337.50 0.2896
337.60 0.29
337.70 0.2904
337.80 0.2908
337.90 0.2912
338.00 0.2916
338.10 0.292
338.20 0.2924
338.30 0.2928
338.40 0.2932
338.50 0.2936
338.60 0.2941
338.70 0.2945
338.80 0.2949
338.90 0.2953
339.00 0.2957
339.10 0.2961
339.20 0.2965
339.30 0.2969
339.40 0.2974
339.50 0.2978
339.60 0.2982
339.70 0.2986
339.80 0.299
339.90 0.2994
340.00 0.2998
340.10 0.3002
340.20 0.3006
340.30 0.3011
340.40 0.3015
340.50 0.3019
340.60 0.3023
340.70 0.3027
340.80 0.3032
340.90 0.3036
341.00 0.304
341.10 0.3044
341.20 0.3048
341.30 0.3052
341.40 0.3056
341.50 0.3061
341.60 0.3065
341.70 0.3069
341.80 0.3073
341.90 0.3077
342.00 0.3081
342.10 0.3085
342.20 0.309
342.30 0.3094
342.40 0.3098
342.50 0.3102
342.60 0.3107
342.70 0.3111
342.80 0.3115
342.90 0.3119
343.00 0.3123
343.10 0.3128
343.20 0.3132
343.30 0.3136
343.40 0.314
343.50 0.3144
343.60 0.3148
343.70 0.3153
343.80 0.3157
343.90 0.3161
344.00 0.3165
344.10 0.3169
344.20 0.3174
344.30 0.3178
344.40 0.3182
344.50 0.3186
344.60 0.3191
344.70 0.3195
344.80 0.3199
344.90 0.3203
345.00 0.3208
345.10 0.3212
345.20 0.3216
345.30 0.322
345.40 0.3225
345.50 0.3229
345.60 0.3233
345.70 0.3237
345.80 0.3241
345.90 0.3246
346.00 0.325
346.10 0.3254
346.20 0.3259
346.30 0.3263
346.40 0.3267
346.50 0.3271
346.60 0.3276
346.70 0.328
346.80 0.3284
346.90 0.3289
347.00 0.3293
347.10 0.3297
347.20 0.3301
347.30 0.3306
347.40 0.331
347.50 0.3314
347.60 0.3318
347.70 0.3323
347.80 0.3327
347.90 0.3331
348.00 0.3335
348.10 0.334
348.20 0.3344
348.30 0.3348
348.40 0.3353
348.50 0.3357
348.60 0.3361
348.70 0.3366
348.80 0.337
348.90 0.3374
349.00 0.3379
349.10 0.3383
349.20 0.3387
349.30 0.3392
349.40 0.3396
349.50 0.34
349.60 0.3404
349.70 0.3409
349.80 0.3413
349.90 0.3417
350.00 0.3421
350.10 0.3426
350.20 0.343
350.30 0.3435
350.40 0.3439
350.50 0.3443
350.60 0.3448
350.70 0.3452
350.80 0.3457
350.90 0.3461
351.00 0.3465
351.10 0.347
351.20 0.3474
351.30 0.3478
351.40 0.3483
351.50 0.3487
351.60 0.3491
351.70 0.3496
351.80 0.35
351.90 0.3504
352.00 0.3508
352.10 0.3513
352.20 0.3517
352.30 0.3522
352.40 0.3526
352.50 0.3531
352.60 0.3535
352.70 0.3539
352.80 0.3544
352.90 0.3548
353.00 0.3552
353.10 0.3557
353.20 0.3561
353.30 0.3565
353.40 0.357
353.50 0.3574
353.60 0.3579
353.70 0.3583
353.80 0.3587
353.90 0.3592
354.00 0.3596
354.10 0.36
354.20 0.3605
354.30 0.3609
354.40 0.3614
354.50 0.3618
354.60 0.3623
354.70 0.3627
354.80 0.3631
354.90 0.3636
355.00 0.364
355.10 0.3645
355.20 0.3649
355.30 0.3653
355.40 0.3658
355.50 0.3662
355.60 0.3667
355.70 0.3671
355.80 0.3675
355.90 0.368
356.00 0.3684
356.10 0.3689
356.20 0.3693
356.30 0.3698
356.40 0.3702
356.50 0.3707
356.60 0.3711
356.70 0.3715
356.80 0.372
356.90 0.3724
357.00 0.3729
357.10 0.3733
357.20 0.3738
357.30 0.3742
357.40 0.3746
357.50 0.3751
357.60 0.3755
357.70 0.376
357.80 0.3764
357.90 0.3768
358.00 0.3773
358.10 0.3777
358.20 0.3782
358.30 0.3786
358.40 0.3791
358.50 0.3795
358.60 0.38
358.70 0.3804
358.80 0.3809
358.90 0.3813
359.00 0.3818
359.10 0.3822
359.20 0.3827
359.30 0.3831
359.40 0.3836
359.50 0.384
359.60 0.3844
359.70 0.3849
359.80 0.3853
359.90 0.3858
360.00 0.3862
360.10 0.3867
360.20 0.3871
360.30 0.3876
360.40 0.388
360.50 0.3885
360.60 0.3889
360.70 0.3894
360.80 0.3898
360.90 0.3903
361.00 0.3907
361.10 0.3912
361.20 0.3916
361.30 0.3921
361.40 0.3925
361.50 0.393
361.60 0.3934
361.70 0.3939
361.80 0.3943
361.90 0.3948
362.00 0.3952
362.10 0.3956
362.20 0.3961
362.30 0.3966
362.40 0.397
362.50 0.3975
362.60 0.3979
362.70 0.3984
362.80 0.3988
362.90 0.3993
363.00 0.3997
363.10 0.4002
363.20 0.4006
363.30 0.4011
363.40 0.4015
363.50 0.402
363.60 0.4024
363.70 0.4029
363.80 0.4033
363.90 0.4038
364.00 0.4043
364.10 0.4047
364.20 0.4052
364.30 0.4056
364.40 0.4061
364.50 0.4065
364.60 0.407
364.70 0.4074
364.80 0.4079
364.90 0.4083
365.00 0.4088
365.10 0.4093
365.20 0.4097
365.30 0.4102
365.40 0.4106
365.50 0.4111
365.60 0.4115
365.70 0.412
365.80 0.4124
365.90 0.4129
366.00 0.4133
366.10 0.4138
366.20 0.4143
366.30 0.4147
366.40 0.4152
366.50 0.4156
366.60 0.4161
366.70 0.4166
366.80 0.417
366.90 0.4175
367.00 0.4179
367.10 0.4184
367.20 0.4188
367.30 0.4193
367.40 0.4198
367.50 0.4202
367.60 0.4207
367.70 0.4211
367.80 0.4216
367.90 0.422
368.00 0.4225
368.10 0.4229
368.20 0.4234
368.30 0.4239
368.40 0.4243
368.50 0.4248
368.60 0.4253
368.70 0.4257
368.80 0.4262
368.90 0.4266
369.00 0.4271
369.10 0.4275
369.20 0.428
369.30 0.4285
369.40 0.4289
369.50 0.4294
369.60 0.4298
369.70 0.4303
369.80 0.4307
369.90 0.4312
370.00 0.4316
370.10 0.4321
370.20 0.4326
370.30 0.433
370.40 0.4335
370.50 0.434
370.60 0.4344
370.70 0.4349
370.80 0.4354
370.90 0.4358
371.00 0.4363
371.10 0.4367
371.20 0.4372
371.30 0.4377
371.40 0.4381
371.50 0.4386
371.60 0.439
371.70 0.4395
371.80 0.44
371.90 0.4404
372.00 0.4409
372.10 0.4413
372.20 0.4418
372.30 0.4423
372.40 0.4427
372.50 0.4432
372.60 0.4437
372.70 0.4441
372.80 0.4446
372.90 0.4451
373.00 0.4455
373.10 0.446
373.20 0.4464
373.30 0.4469
373.40 0.4474
373.50 0.4478
373.60 0.4483
373.70 0.4487
373.80 0.4492
373.90 0.4497
374.00 0.4501
374.10 0.4506
374.20 0.4511
374.30 0.4515
374.40 0.452
374.50 0.4525
374.60 0.4529
374.70 0.4534
374.80 0.4539
374.90 0.4543
375.00 0.4548
375.10 0.4552
375.20 0.4557
375.30 0.4562
375.40 0.4566
375.50 0.4571
375.60 0.4576
375.70 0.458
375.80 0.4585
375.90 0.4589
376.00 0.4594
376.10 0.4599
376.20 0.4603
376.30 0.4608
376.40 0.4613
376.50 0.4617
376.60 0.4622
376.70 0.4627
376.80 0.4631
376.90 0.4636
377.00 0.4641
377.10 0.4645
377.20 0.465
377.30 0.4655
377.40 0.4659
377.50 0.4664
377.60 0.4669
377.70 0.4673
377.80 0.4678
377.90 0.4683
378.00 0.4687
378.10 0.4692
378.20 0.4697
378.30 0.4701
378.40 0.4706
378.50 0.4711
378.60 0.4715
378.70 0.472
378.80 0.4725
378.90 0.4729
379.00 0.4734
379.10 0.4739
379.20 0.4743
379.30 0.4748
379.40 0.4753
379.50 0.4757
379.60 0.4762
379.70 0.4767
379.80 0.4771
379.90 0.4776
380.00 0.4781
380.10 0.4785
380.20 0.479
380.30 0.4795
380.40 0.4799
380.50 0.4804
380.60 0.4809
380.70 0.4813
380.80 0.4818
380.90 0.4823
381.00 0.4827
381.10 0.4832
381.20 0.4837
381.30 0.4841
381.40 0.4846
381.50 0.4851
381.60 0.4856
381.70 0.486
381.80 0.4865
381.90 0.487
382.00 0.4874
382.10 0.4879
382.20 0.4884
382.30 0.4888
382.40 0.4893
382.50 0.4898
382.60 0.4902
382.70 0.4907
382.80 0.4912
382.90 0.4917
383.00 0.4921
383.10 0.4926
383.20 0.4931
383.30 0.4935
383.40 0.494
383.50 0.4945
383.60 0.4949
383.70 0.4954
383.80 0.4959
383.90 0.4964
384.00 0.4968
384.10 0.4973
384.20 0.4978
384.30 0.4982
384.40 0.4987
384.50 0.4992
384.60 0.4996
384.70 0.5001
384.80 0.5006
384.90 0.5011
385.00 0.5015
385.10 0.502
385.20 0.5025
385.30 0.5029
385.40 0.5034
385.50 0.5039
385.60 0.5043
385.70 0.5048
385.80 0.5053
385.90 0.5058
386.00 0.5062
386.10 0.5067
386.20 0.5072
386.30 0.5076
386.40 0.5081
386.50 0.5086
386.60 0.5091
386.70 0.5095
386.80 0.51
386.90 0.5105
387.00 0.5109
387.10 0.5114
387.20 0.5119
387.30 0.5124
387.40 0.5128
387.50 0.5133
387.60 0.5138
387.70 0.5142
387.80 0.5147
387.90 0.5152
388.00 0.5156
388.10 0.5161
388.20 0.5166
388.30 0.5171
388.40 0.5175
388.50 0.518
388.60 0.5185
388.70 0.519
388.80 0.5194
388.90 0.5199
389.00 0.5204
389.10 0.5208
389.20 0.5213
389.30 0.5218
389.40 0.5223
389.50 0.5227
389.60 0.5232
389.70 0.5237
389.80 0.5241
389.90 0.5246
390.00 0.5251
390.10 0.5256
390.20 0.526
390.30 0.5265
390.40 0.527
390.50 0.5274
390.60 0.5279
390.70 0.5284
390.80 0.5289
390.90 0.5293
391.00 0.5298
391.10 0.5303
391.20 0.5308
391.30 0.5312
391.40 0.5317
391.50 0.5322
391.60 0.5327
391.70 0.5331
391.80 0.5336
391.90 0.5341
392.00 0.5345
392.10 0.535
392.20 0.5355
392.30 0.536
392.40 0.5364
392.50 0.5369
392.60 0.5374
392.70 0.5379
392.80 0.5383
392.90 0.5388
393.00 0.5393
393.10 0.5397
393.20 0.5402
393.30 0.5407
393.40 0.5412
393.50 0.5416
393.60 0.5421
393.70 0.5426
393.80 0.5431
393.90 0.5435
394.00 0.544
394.10 0.5445
394.20 0.5449
394.30 0.5454
394.40 0.5459
394.50 0.5464
394.60 0.5468
394.70 0.5473
394.80 0.5478
394.90 0.5483
395.00 0.5487
395.10 0.5492
395.20 0.5497
395.30 0.5502
395.40 0.5506
395.50 0.5511
395.60 0.5516
395.70 0.552
395.80 0.5525
395.90 0.553
396.00 0.5535
396.10 0.5539
396.20 0.5544
396.30 0.5549
396.40 0.5554
396.50 0.5558
396.60 0.5563
396.70 0.5568
396.80 0.5573
396.90 0.5577
397.00 0.5582
397.10 0.5587
397.20 0.5591
397.30 0.5596
397.40 0.5601
397.50 0.5606
397.60 0.561
397.70 0.5615
397.80 0.562
397.90 0.5624
398.00 0.5629
398.10 0.5634
398.20 0.5639
398.30 0.5644
398.40 0.5648
398.50 0.5653
398.60 0.5658
398.70 0.5662
398.80 0.5667
398.90 0.5672
399.00 0.5677
399.10 0.5681
399.20 0.5686
399.30 0.5691
399.40 0.5696
399.50 0.57
399.60 0.5705
399.70 0.571
399.80 0.5715
399.90 0.5719
400.00 0.5724
400.10 0.5729
400.20 0.5733
400.30 0.5738
400.40 0.5743
400.50 0.5748
400.60 0.5752
400.70 0.5757
400.80 0.5762
400.90 0.5767
401.00 0.5771
401.10 0.5776
401.20 0.5781
401.30 0.5785
401.40 0.579
401.50 0.5795
401.60 0.58
401.70 0.5804
401.80 0.5809
401.90 0.5814
402.00 0.5819
402.10 0.5823
402.20 0.5828
402.30 0.5833
402.40 0.5838
402.50 0.5842
402.60 0.5847
402.70 0.5852
402.80 0.5856
402.90 0.5861
403.00 0.5866
403.10 0.5871
403.20 0.5875
403.30 0.588
403.40 0.5885
403.50 0.589
403.60 0.5894
403.70 0.5899
403.80 0.5904
403.90 0.5908
404.00 0.5913
404.10 0.5918
404.20 0.5923
404.30 0.5927
404.40 0.5932
404.50 0.5937
404.60 0.5942
404.70 0.5946
404.80 0.5951
404.90 0.5956
405.00 0.596
405.10 0.5965
405.20 0.597
405.30 0.5975
405.40 0.5979
405.50 0.5984
405.60 0.5989
405.70 0.5994
405.80 0.5998
405.90 0.6003
406.00 0.6008
406.10 0.6012
406.20 0.6017
406.30 0.6022
406.40 0.6027
406.50 0.6031
406.60 0.6036
406.70 0.6041
406.80 0.6045
406.90 0.605
407.00 0.6055
407.10 0.606
407.20 0.6064
407.30 0.6069
407.40 0.6074
407.50 0.6079
407.60 0.6083
407.70 0.6088
407.80 0.6093
407.90 0.6097
408.00 0.6102
408.10 0.6107
408.20 0.6112
408.30 0.6116
408.40 0.6121
408.50 0.6126
408.60 0.613
408.70 0.6135
408.80 0.614
408.90 0.6145
409.00 0.6149
409.10 0.6154
409.20 0.6159
409.30 0.6163
409.40 0.6168
409.50 0.6173
409.60 0.6177
409.70 0.6182
409.80 0.6187
409.90 0.6192
410.00 0.6196
410.10 0.6201
410.20 0.6206
410.30 0.6211
410.40 0.6215
410.50 0.622
410.60 0.6225
410.70 0.6229
410.80 0.6234
410.90 0.6239
411.00 0.6244
411.10 0.6248
411.20 0.6253
411.30 0.6258
411.40 0.6262
411.50 0.6267
411.60 0.6272
411.70 0.6276
411.80 0.6281
411.90 0.6286
412.00 0.6291
412.10 0.6295
412.20 0.63
412.30 0.6305
412.40 0.6309
412.50 0.6314
412.60 0.6319
412.70 0.6323
412.80 0.6328
412.90 0.6333
413.00 0.6338
413.10 0.6342
413.20 0.6347
413.30 0.6352
413.40 0.6356
413.50 0.6361
413.60 0.6366
413.70 0.637
413.80 0.6375
413.90 0.638
414.00 0.6385
414.10 0.6389
414.20 0.6394
414.30 0.6399
414.40 0.6403
414.50 0.6408
414.60 0.6413
414.70 0.6417
414.80 0.6422
414.90 0.6427
415.00 0.6431
415.10 0.6436
415.20 0.6441
415.30 0.6445
415.40 0.645
415.50 0.6455
415.60 0.646
415.70 0.6464
415.80 0.6469
415.90 0.6474
416.00 0.6478
416.10 0.6483
416.20 0.6488
416.30 0.6492
416.40 0.6497
416.50 0.6502
416.60 0.6506
416.70 0.6511
416.80 0.6516
416.90 0.652
417.00 0.6525
417.10 0.653
417.20 0.6534
417.30 0.6539
417.40 0.6544
417.50 0.6549
417.60 0.6553
417.70 0.6558
417.80 0.6563
417.90 0.6567
418.00 0.6572
418.10 0.6576
418.20 0.6581
418.30 0.6586
418.40 0.6591
418.50 0.6595
418.60 0.66
418.70 0.6604
418.80 0.6609
418.90 0.6614
419.00 0.6618
419.10 0.6623
419.20 0.6628
419.30 0.6633
419.40 0.6637
419.50 0.6642
419.60 0.6647
419.70 0.6651
419.80 0.6656
419.90 0.6661
420.00 0.6665
420.10 0.667
420.20 0.6674
420.30 0.6679
420.40 0.6684
420.50 0.6688
420.60 0.6693
420.70 0.6698
420.80 0.6702
420.90 0.6707
421.00 0.6712
421.10 0.6716
421.20 0.6721
421.30 0.6726
421.40 0.673
421.50 0.6735
421.60 0.674
421.70 0.6744
421.80 0.6749
421.90 0.6754
422.00 0.6758
422.10 0.6763
422.20 0.6767
422.30 0.6772
422.40 0.6777
422.50 0.6781
422.60 0.6786
422.70 0.6791
422.80 0.6795
422.90 0.68
423.00 0.6805
423.10 0.6809
423.20 0.6814
423.30 0.6819
423.40 0.6823
423.50 0.6828
423.60 0.6832
423.70 0.6837
423.80 0.6842
423.90 0.6846
424.00 0.6851
424.10 0.6856
424.20 0.686
424.30 0.6865
424.40 0.687
424.50 0.6874
424.60 0.6879
424.70 0.6883
424.80 0.6888
424.90 0.6893
425.00 0.6897
425.10 0.6902
425.20 0.6906
425.30 0.6911
425.40 0.6916
425.50 0.692
425.60 0.6925
425.70 0.693
425.80 0.6934
425.90 0.6939
426.00 0.6943
426.10 0.6948
426.20 0.6953
426.30 0.6957
426.40 0.6962
426.50 0.6967
426.60 0.6971
426.70 0.6976
426.80 0.698
426.90 0.6985
427.00 0.699
427.10 0.6994
427.20 0.6999
427.30 0.7003
427.40 0.7008
427.50 0.7013
427.60 0.7017
427.70 0.7022
427.80 0.7026
427.90 0.7031
428.00 0.7036
428.10 0.704
428.20 0.7045
428.30 0.7049
428.40 0.7054
428.50 0.7059
428.60 0.7063
428.70 0.7068
428.80 0.7072
428.90 0.7077
429.00 0.7082
429.10 0.7086
429.20 0.7091
429.30 0.7095
429.40 0.71
429.50 0.7104
429.60 0.7109
429.70 0.7114
429.80 0.7118
429.90 0.7123
430.00 0.7127
430.10 0.7132
430.20 0.7137
430.30 0.7141
430.40 0.7146
430.50 0.715
430.60 0.7155
430.70 0.7159
430.80 0.7164
430.90 0.7169
431.00 0.7173
431.10 0.7178
431.20 0.7182
431.30 0.7187
431.40 0.7191
431.50 0.7196
431.60 0.7201
431.70 0.7205
431.80 0.721
431.90 0.7214
432.00 0.7219
432.10 0.7223
432.20 0.7228
432.30 0.7233
432.40 0.7237
432.50 0.7242
432.60 0.7246
432.70 0.7251
432.80 0.7255
432.90 0.726
433.00 0.7264
433.10 0.7269
433.20 0.7274
433.30 0.7278
433.40 0.7283
433.50 0.7287
433.60 0.7292
433.70 0.7296
433.80 0.7301
433.90 0.7305
434.00 0.731
434.10 0.7314
434.20 0.7319
434.30 0.7324
434.40 0.7328
434.50 0.7333
434.60 0.7337
434.70 0.7342
434.80 0.7346
434.90 0.7351
435.00 0.7355
435.10 0.736
435.20 0.7364
435.30 0.7369
435.40 0.7374
435.50 0.7378
435.60 0.7382
435.70 0.7387
435.80 0.7392
435.90 0.7396
436.00 0.7401
436.10 0.7405
436.20 0.741
436.30 0.7414
436.40 0.7419
436.50 0.7423
436.60 0.7428
436.70 0.7432
436.80 0.7437
436.90 0.7441
437.00 0.7446
437.10 0.745
437.20 0.7455
437.30 0.7459
437.40 0.7464
437.50 0.7468
437.60 0.7473
437.70 0.7477
437.80 0.7482
437.90 0.7486
438.00 0.7491
438.10 0.7495
438.20 0.75
438.30 0.7504
438.40 0.7509
438.50 0.7513
438.60 0.7518
438.70 0.7522
438.80 0.7527
438.90 0.7531
439.00 0.7536
439.10 0.754
439.20 0.7545
439.30 0.7549
439.40 0.7554
439.50 0.7558
439.60 0.7563
439.70 0.7567
439.80 0.7572
439.90 0.7576
440.00 0.7581
440.10 0.7585
440.20 0.759
440.30 0.7594
440.40 0.7599
440.50 0.7603
440.60 0.7607
440.70 0.7612
440.80 0.7616
440.90 0.7621
441.00 0.7625
441.10 0.763
441.20 0.7634
441.30 0.7639
441.40 0.7643
441.50 0.7648
441.60 0.7652
441.70 0.7657
441.80 0.7661
441.90 0.7665
442.00 0.767
442.10 0.7674
442.20 0.7679
442.30 0.7683
442.40 0.7688
442.50 0.7692
442.60 0.7697
442.70 0.7701
442.80 0.7706
442.90 0.771
443.00 0.7715
