# Version 2.1 - nm, norm@500 to 1, cut digits, bergeron_10000_70.dat_10000
# Wavelength(nm)  Flambda(ergs/cm^s/s/nm)
300.00 1.387
300.10 1.387
300.20 1.386
300.30 1.385
300.40 1.385
300.50 1.384
300.60 1.383
300.70 1.383
300.80 1.382
300.90 1.382
301.00 1.381
301.10 1.38
301.20 1.38
301.30 1.379
301.40 1.379
301.50 1.378
301.60 1.377
301.70 1.377
301.80 1.376
301.90 1.375
302.00 1.375
302.10 1.374
302.20 1.374
302.30 1.373
302.40 1.372
302.50 1.372
302.60 1.371
302.70 1.371
302.80 1.37
302.90 1.369
303.00 1.369
303.10 1.368
303.20 1.368
303.30 1.367
303.40 1.366
303.50 1.366
303.60 1.365
303.70 1.364
303.80 1.364
303.90 1.363
304.00 1.363
304.10 1.362
304.20 1.361
304.30 1.361
304.40 1.36
304.50 1.36
304.60 1.359
304.70 1.358
304.80 1.358
304.90 1.357
305.00 1.357
305.10 1.356
305.20 1.355
305.30 1.355
305.40 1.354
305.50 1.354
305.60 1.353
305.70 1.352
305.80 1.352
305.90 1.351
306.00 1.35
306.10 1.35
306.20 1.349
306.30 1.349
306.40 1.348
306.50 1.347
306.60 1.347
306.70 1.346
306.80 1.346
306.90 1.345
307.00 1.344
307.10 1.344
307.20 1.343
307.30 1.343
307.40 1.342
307.50 1.341
307.60 1.341
307.70 1.34
307.80 1.34
307.90 1.339
308.00 1.338
308.10 1.338
308.20 1.337
308.30 1.337
308.40 1.336
308.50 1.335
308.60 1.335
308.70 1.334
308.80 1.333
308.90 1.333
309.00 1.332
309.10 1.332
309.20 1.331
309.30 1.33
309.40 1.33
309.50 1.329
309.60 1.329
309.70 1.328
309.80 1.327
309.90 1.327
310.00 1.326
310.10 1.326
310.20 1.325
310.30 1.324
310.40 1.324
310.50 1.323
310.60 1.323
310.70 1.322
310.80 1.321
310.90 1.321
311.00 1.32
311.10 1.32
311.20 1.319
311.30 1.319
311.40 1.318
311.50 1.317
311.60 1.317
311.70 1.316
311.80 1.316
311.90 1.315
312.00 1.314
312.10 1.314
312.20 1.313
312.30 1.313
312.40 1.312
312.50 1.311
312.60 1.311
312.70 1.31
312.80 1.31
312.90 1.309
313.00 1.308
313.10 1.308
313.20 1.307
313.30 1.307
313.40 1.306
313.50 1.305
313.60 1.305
313.70 1.304
313.80 1.304
313.90 1.303
314.00 1.302
314.10 1.302
314.20 1.301
314.30 1.301
314.40 1.3
314.50 1.299
314.60 1.299
314.70 1.298
314.80 1.298
314.90 1.297
315.00 1.297
315.10 1.296
315.20 1.295
315.30 1.295
315.40 1.294
315.50 1.294
315.60 1.293
315.70 1.292
315.80 1.292
315.90 1.291
316.00 1.291
316.10 1.29
316.20 1.289
316.30 1.289
316.40 1.288
316.50 1.288
316.60 1.287
316.70 1.287
316.80 1.286
316.90 1.285
317.00 1.285
317.10 1.284
317.20 1.284
317.30 1.283
317.40 1.282
317.50 1.282
317.60 1.281
317.70 1.281
317.80 1.28
317.90 1.28
318.00 1.279
318.10 1.278
318.20 1.278
318.30 1.277
318.40 1.277
318.50 1.276
318.60 1.275
318.70 1.275
318.80 1.274
318.90 1.274
319.00 1.273
319.10 1.273
319.20 1.272
319.30 1.271
319.40 1.271
319.50 1.27
319.60 1.27
319.70 1.269
319.80 1.268
319.90 1.268
320.00 1.267
320.10 1.267
320.20 1.266
320.30 1.266
320.40 1.265
320.50 1.264
320.60 1.264
320.70 1.263
320.80 1.263
320.90 1.262
321.00 1.262
321.10 1.261
321.20 1.26
321.30 1.26
321.40 1.259
321.50 1.259
321.60 1.258
321.70 1.257
321.80 1.257
321.90 1.256
322.00 1.256
322.10 1.255
322.20 1.255
322.30 1.254
322.40 1.253
322.50 1.253
322.60 1.252
322.70 1.252
322.80 1.251
322.90 1.251
323.00 1.25
323.10 1.249
323.20 1.249
323.30 1.248
323.40 1.248
323.50 1.247
323.60 1.247
323.70 1.246
323.80 1.245
323.90 1.245
324.00 1.244
324.10 1.244
324.20 1.243
324.30 1.243
324.40 1.242
324.50 1.241
324.60 1.241
324.70 1.24
324.80 1.24
324.90 1.239
325.00 1.239
325.10 1.238
325.20 1.237
325.30 1.237
325.40 1.236
325.50 1.236
325.60 1.235
325.70 1.235
325.80 1.234
325.90 1.233
326.00 1.233
326.10 1.232
326.20 1.232
326.30 1.231
326.40 1.231
326.50 1.23
326.60 1.23
326.70 1.229
326.80 1.228
326.90 1.228
327.00 1.227
327.10 1.227
327.20 1.226
327.30 1.226
327.40 1.225
327.50 1.224
327.60 1.224
327.70 1.223
327.80 1.223
327.90 1.222
328.00 1.222
328.10 1.221
328.20 1.221
328.30 1.22
328.40 1.219
328.50 1.219
328.60 1.218
328.70 1.218
328.80 1.217
328.90 1.217
329.00 1.216
329.10 1.215
329.20 1.215
329.30 1.214
329.40 1.214
329.50 1.213
329.60 1.213
329.70 1.212
329.80 1.212
329.90 1.211
330.00 1.21
330.10 1.21
330.20 1.209
330.30 1.209
330.40 1.208
330.50 1.208
330.60 1.207
330.70 1.207
330.80 1.206
330.90 1.205
331.00 1.205
331.10 1.204
331.20 1.204
331.30 1.203
331.40 1.203
331.50 1.202
331.60 1.202
331.70 1.201
331.80 1.2
331.90 1.2
332.00 1.199
332.10 1.199
332.20 1.198
332.30 1.198
332.40 1.197
332.50 1.197
332.60 1.196
332.70 1.195
332.80 1.195
332.90 1.194
333.00 1.194
333.10 1.193
333.20 1.193
333.30 1.192
333.40 1.192
333.50 1.191
333.60 1.191
333.70 1.19
333.80 1.189
333.90 1.189
334.00 1.188
334.10 1.188
334.20 1.187
334.30 1.187
334.40 1.186
334.50 1.186
334.60 1.185
334.70 1.185
334.80 1.184
334.90 1.183
335.00 1.183
335.10 1.182
335.20 1.182
335.30 1.181
335.40 1.181
335.50 1.18
335.60 1.18
335.70 1.179
335.80 1.179
335.90 1.178
336.00 1.177
336.10 1.177
336.20 1.176
336.30 1.176
336.40 1.175
336.50 1.175
336.60 1.174
336.70 1.174
336.80 1.173
336.90 1.173
337.00 1.172
337.10 1.171
337.20 1.171
337.30 1.17
337.40 1.17
337.50 1.169
337.60 1.169
337.70 1.168
337.80 1.168
337.90 1.167
338.00 1.167
338.10 1.166
338.20 1.166
338.30 1.165
338.40 1.164
338.50 1.164
338.60 1.163
338.70 1.163
338.80 1.162
338.90 1.162
339.00 1.161
339.10 1.161
339.20 1.16
339.30 1.16
339.40 1.159
339.50 1.159
339.60 1.158
339.70 1.158
339.80 1.157
339.90 1.156
340.00 1.156
340.10 1.155
340.20 1.155
340.30 1.154
340.40 1.154
340.50 1.153
340.60 1.153
340.70 1.152
340.80 1.152
340.90 1.151
341.00 1.151
341.10 1.15
341.20 1.15
341.30 1.149
341.40 1.148
341.50 1.148
341.60 1.147
341.70 1.147
341.80 1.146
341.90 1.146
342.00 1.145
342.10 1.145
342.20 1.144
342.30 1.144
342.40 1.143
342.50 1.143
342.60 1.142
342.70 1.142
342.80 1.141
342.90 1.141
343.00 1.14
343.10 1.139
343.20 1.139
343.30 1.138
343.40 1.138
343.50 1.137
343.60 1.137
343.70 1.136
343.80 1.136
343.90 1.135
344.00 1.135
344.10 1.134
344.20 1.134
344.30 1.133
344.40 1.133
344.50 1.132
344.60 1.132
344.70 1.131
344.80 1.131
344.90 1.13
345.00 1.13
345.10 1.129
345.20 1.129
345.30 1.128
345.40 1.127
345.50 1.127
345.60 1.126
345.70 1.126
345.80 1.125
345.90 1.125
346.00 1.124
346.10 1.124
346.20 1.123
346.30 1.123
346.40 1.122
346.50 1.122
346.60 1.121
346.70 1.121
346.80 1.12
346.90 1.12
347.00 1.119
347.10 1.119
347.20 1.118
347.30 1.118
347.40 1.117
347.50 1.117
347.60 1.116
347.70 1.116
347.80 1.115
347.90 1.115
348.00 1.114
348.10 1.114
348.20 1.113
348.30 1.112
348.40 1.112
348.50 1.111
348.60 1.111
348.70 1.11
348.80 1.11
348.90 1.109
349.00 1.109
349.10 1.108
349.20 1.108
349.30 1.107
349.40 1.107
349.50 1.106
349.60 1.106
349.70 1.105
349.80 1.105
349.90 1.104
350.00 1.104
350.10 1.103
350.20 1.103
350.30 1.102
350.40 1.102
350.50 1.101
350.60 1.101
350.70 1.1
350.80 1.1
350.90 1.099
351.00 1.099
351.10 1.098
351.20 1.098
351.30 1.097
351.40 1.097
351.50 1.096
351.60 1.096
351.70 1.095
351.80 1.095
351.90 1.094
352.00 1.094
352.10 1.093
352.20 1.093
352.30 1.092
352.40 1.092
352.50 1.091
352.60 1.091
352.70 1.09
352.80 1.09
352.90 1.089
353.00 1.089
353.10 1.088
353.20 1.088
353.30 1.087
353.40 1.087
353.50 1.086
353.60 1.086
353.70 1.085
353.80 1.085
353.90 1.084
354.00 1.084
354.10 1.083
354.20 1.083
354.30 1.082
354.40 1.082
354.50 1.081
354.60 1.081
354.70 1.08
354.80 1.08
354.90 1.079
355.00 1.079
355.10 1.078
355.20 1.078
355.30 1.077
355.40 1.077
355.50 1.076
355.60 1.076
355.70 1.075
355.80 1.075
355.90 1.074
356.00 1.074
356.10 1.073
356.20 1.073
356.30 1.072
356.40 1.072
356.50 1.071
356.60 1.071
356.70 1.07
356.80 1.07
356.90 1.069
357.00 1.069
357.10 1.068
357.20 1.068
357.30 1.067
357.40 1.067
357.50 1.066
357.60 1.066
357.70 1.065
357.80 1.065
357.90 1.064
358.00 1.064
358.10 1.063
358.20 1.063
358.30 1.062
358.40 1.062
358.50 1.061
358.60 1.061
358.70 1.06
358.80 1.06
358.90 1.059
359.00 1.059
359.10 1.058
359.20 1.058
359.30 1.057
359.40 1.057
359.50 1.057
359.60 1.056
359.70 1.056
359.80 1.055
359.90 1.055
360.00 1.054
360.10 1.054
360.20 1.053
360.30 1.053
360.40 1.052
360.50 1.052
360.60 1.051
360.70 1.051
360.80 1.05
360.90 1.05
361.00 1.049
361.10 1.049
361.20 1.048
361.30 1.048
361.40 1.047
361.50 1.047
361.60 1.046
361.70 1.046
361.80 1.045
361.90 1.045
362.00 1.044
362.10 1.044
362.20 1.043
362.30 1.043
362.40 1.043
362.50 1.042
362.60 1.042
362.70 1.041
362.80 1.041
362.90 1.04
363.00 1.04
363.10 1.039
363.20 1.039
363.30 1.038
363.40 1.038
363.50 1.037
363.60 1.037
363.70 1.036
363.80 1.036
363.90 1.035
364.00 1.035
364.10 1.034
364.20 1.034
364.30 1.033
364.40 1.033
364.50 1.032
364.60 1.032
364.70 1.031
364.80 1.031
364.90 1.03
365.00 1.03
365.10 1.029
365.20 1.029
365.30 1.028
365.40 1.028
365.50 1.028
365.60 1.027
365.70 1.027
365.80 1.026
365.90 1.026
366.00 1.025
366.10 1.025
366.20 1.025
366.30 1.024
366.40 1.024
366.50 1.023
366.60 1.023
366.70 1.023
366.80 1.022
366.90 1.022
367.00 1.021
367.10 1.021
367.20 1.021
367.30 1.02
367.40 1.02
367.50 1.02
367.60 1.019
367.70 1.019
367.80 1.018
367.90 1.018
368.00 1.018
368.10 1.019
368.20 1.019
368.30 1.02
368.40 1.021
368.50 1.022
368.60 1.023
368.70 1.023
368.80 1.024
368.90 1.025
369.00 1.026
369.10 1.027
369.20 1.027
369.30 1.028
369.40 1.029
369.50 1.03
369.60 1.031
369.70 1.032
369.80 1.032
369.90 1.033
370.00 1.034
370.10 1.037
370.20 1.04
370.30 1.042
370.40 1.045
370.50 1.048
370.60 1.051
370.70 1.053
370.80 1.056
370.90 1.059
371.00 1.062
371.10 1.065
371.20 1.067
371.30 1.07
371.40 1.073
371.50 1.076
371.60 1.078
371.70 1.081
371.80 1.084
371.90 1.087
372.00 1.089
372.10 1.093
372.20 1.097
372.30 1.101
372.40 1.105
372.50 1.109
372.60 1.113
372.70 1.117
372.80 1.121
372.90 1.125
373.00 1.129
373.10 1.133
373.20 1.137
373.30 1.141
373.40 1.145
373.50 1.149
373.60 1.153
373.70 1.157
373.80 1.161
373.90 1.165
374.00 1.169
374.10 1.172
374.20 1.176
374.30 1.18
374.40 1.183
374.50 1.187
374.60 1.191
374.70 1.194
374.80 1.198
374.90 1.202
375.00 1.205
375.10 1.209
375.20 1.213
375.30 1.216
375.40 1.22
375.50 1.224
375.60 1.227
375.70 1.231
375.80 1.234
375.90 1.238
376.00 1.242
376.10 1.243
376.20 1.245
376.30 1.247
376.40 1.249
376.50 1.25
376.60 1.252
376.70 1.254
376.80 1.255
376.90 1.257
377.00 1.259
377.10 1.256
377.20 1.253
377.30 1.251
377.40 1.248
377.50 1.245
377.60 1.242
377.70 1.24
377.80 1.237
377.90 1.234
378.00 1.231
378.10 1.213
378.20 1.194
378.30 1.176
378.40 1.157
378.50 1.139
378.60 1.12
378.70 1.102
378.80 1.083
378.90 1.065
379.00 1.047
379.10 1.026
379.20 1.005
379.30 0.9849
379.40 0.9643
379.50 0.9437
379.60 0.9232
379.70 0.9027
379.80 0.8822
379.90 0.8617
380.00 0.8413
380.10 0.872
380.20 0.9028
380.30 0.9335
380.40 0.9642
380.50 0.9949
380.60 1.026
380.70 1.056
380.80 1.087
380.90 1.117
381.00 1.148
381.10 1.157
381.20 1.167
381.30 1.176
381.40 1.186
381.50 1.195
381.60 1.196
381.70 1.195
381.80 1.19
381.90 1.183
382.00 1.173
382.10 1.16
382.20 1.144
382.30 1.107
382.40 1.071
382.50 1.034
382.60 0.9975
382.70 0.961
382.80 0.9246
382.90 0.8882
383.00 0.8518
383.10 0.8154
383.20 0.7791
383.30 0.7321
383.40 0.6823
383.50 0.6305
383.60 0.6421
383.70 0.6931
383.80 0.743
383.90 0.7898
384.00 0.8357
384.10 0.8822
384.20 0.9276
384.30 0.9713
384.40 1.014
384.50 1.055
384.60 1.092
384.70 1.123
384.80 1.151
384.90 1.174
385.00 1.194
385.10 1.212
385.20 1.227
385.30 1.241
385.40 1.252
385.50 1.262
385.60 1.27
385.70 1.276
385.80 1.281
385.90 1.284
386.00 1.286
386.10 1.286
386.20 1.285
386.30 1.283
386.40 1.28
386.50 1.275
386.60 1.269
386.70 1.261
386.80 1.252
386.90 1.241
387.00 1.228
387.10 1.215
387.20 1.198
387.30 1.18
387.40 1.16
387.50 1.137
387.60 1.111
387.70 1.083
387.80 1.049
387.90 1.011
388.00 0.9698
388.10 0.9234
388.20 0.8754
388.30 0.8259
388.40 0.7756
388.50 0.7259
388.60 0.6767
388.70 0.6259
388.80 0.5728
388.90 0.5175
389.00 0.5692
389.10 0.6205
389.20 0.6713
389.30 0.7203
389.40 0.7699
389.50 0.8199
389.60 0.8697
389.70 0.9182
389.80 0.9653
389.90 1.008
390.00 1.047
390.10 1.083
390.20 1.113
390.30 1.141
390.40 1.166
390.50 1.188
390.60 1.209
390.70 1.229
390.80 1.246
390.90 1.263
391.00 1.278
391.10 1.291
391.20 1.304
391.30 1.315
391.40 1.326
391.50 1.335
391.60 1.344
391.70 1.352
391.80 1.359
391.90 1.365
392.00 1.371
392.10 1.376
392.20 1.38
392.30 1.384
392.40 1.387
392.50 1.389
392.60 1.39
392.70 1.391
392.80 1.392
392.90 1.391
393.00 1.39
393.10 1.389
393.20 1.386
393.30 1.383
393.40 1.38
393.50 1.375
393.60 1.37
393.70 1.365
393.80 1.358
393.90 1.35
394.00 1.343
394.10 1.333
394.20 1.324
394.30 1.313
394.40 1.302
394.50 1.289
394.60 1.277
394.70 1.262
394.80 1.247
394.90 1.231
395.00 1.213
395.10 1.195
395.20 1.175
395.30 1.154
395.40 1.131
395.50 1.106
395.60 1.079
395.70 1.049
395.80 1.018
395.90 0.9832
396.00 0.9464
396.10 0.9076
396.20 0.864
396.30 0.8184
396.40 0.7708
396.50 0.7229
396.60 0.6755
396.70 0.6288
396.80 0.5802
396.90 0.5212
397.00 0.4519
397.10 0.5163
397.20 0.5729
397.30 0.6218
397.40 0.6681
397.50 0.715
397.60 0.7624
397.70 0.8097
397.80 0.855
397.90 0.8986
398.00 0.9372
398.10 0.9738
398.20 1.009
398.30 1.04
398.40 1.069
398.50 1.096
398.60 1.121
398.70 1.144
398.80 1.165
398.90 1.185
399.00 1.204
399.10 1.222
399.20 1.238
399.30 1.254
399.40 1.269
399.50 1.283
399.60 1.296
399.70 1.309
399.80 1.32
399.90 1.332
400.00 1.343
400.10 1.352
400.20 1.362
400.30 1.371
400.40 1.379
400.50 1.387
400.60 1.395
400.70 1.402
400.80 1.409
400.90 1.415
401.00 1.421
401.10 1.427
401.20 1.432
401.30 1.437
401.40 1.441
401.50 1.446
401.60 1.449
401.70 1.453
401.80 1.457
401.90 1.46
402.00 1.462
402.10 1.465
402.20 1.467
402.30 1.469
402.40 1.471
402.50 1.473
402.60 1.474
402.70 1.475
402.80 1.476
402.90 1.477
403.00 1.477
403.10 1.478
403.20 1.478
403.30 1.478
403.40 1.477
403.50 1.477
403.60 1.476
403.70 1.475
403.80 1.474
403.90 1.473
404.00 1.471
404.10 1.47
404.20 1.468
404.30 1.466
404.40 1.463
404.50 1.461
404.60 1.458
404.70 1.455
404.80 1.452
404.90 1.448
405.00 1.444
405.10 1.44
405.20 1.436
405.30 1.432
405.40 1.427
405.50 1.422
405.60 1.416
405.70 1.411
405.80 1.405
405.90 1.398
406.00 1.392
406.10 1.385
406.20 1.378
406.30 1.37
406.40 1.362
406.50 1.354
406.60 1.345
406.70 1.335
406.80 1.326
406.90 1.316
407.00 1.305
407.10 1.293
407.20 1.281
407.30 1.269
407.40 1.255
407.50 1.241
407.60 1.227
407.70 1.211
407.80 1.195
407.90 1.178
408.00 1.161
408.10 1.142
408.20 1.123
408.30 1.102
408.40 1.081
408.50 1.059
408.60 1.034
408.70 1.009
408.80 0.9818
408.90 0.9532
409.00 0.9235
409.10 0.8917
409.20 0.8588
409.30 0.8246
409.40 0.7864
409.50 0.7469
409.60 0.706
409.70 0.6643
409.80 0.6227
409.90 0.581
410.00 0.534
410.10 0.482
410.20 0.4251
410.30 0.5
410.40 0.5593
410.50 0.603
410.60 0.6442
410.70 0.6854
410.80 0.7264
410.90 0.766
411.00 0.8037
411.10 0.8397
411.20 0.8721
411.30 0.9034
411.40 0.9336
411.50 0.9616
411.60 0.9884
411.70 1.014
411.80 1.038
411.90 1.06
412.00 1.081
412.10 1.1
412.20 1.119
412.30 1.137
412.40 1.154
412.50 1.17
412.60 1.185
412.70 1.2
412.80 1.214
412.90 1.227
413.00 1.24
413.10 1.252
413.20 1.263
413.30 1.274
413.40 1.284
413.50 1.293
413.60 1.302
413.70 1.311
413.80 1.319
413.90 1.327
414.00 1.334
414.10 1.342
414.20 1.348
414.30 1.355
414.40 1.361
414.50 1.367
414.60 1.372
414.70 1.378
414.80 1.383
414.90 1.388
415.00 1.392
415.10 1.397
415.20 1.401
415.30 1.405
415.40 1.409
415.50 1.412
415.60 1.416
415.70 1.419
415.80 1.422
415.90 1.425
416.00 1.428
416.10 1.43
416.20 1.433
416.30 1.435
416.40 1.437
416.50 1.44
416.60 1.442
416.70 1.444
416.80 1.445
416.90 1.447
417.00 1.449
417.10 1.45
417.20 1.452
417.30 1.453
417.40 1.454
417.50 1.456
417.60 1.457
417.70 1.458
417.80 1.459
417.90 1.46
418.00 1.461
418.10 1.461
418.20 1.462
418.30 1.463
418.40 1.463
418.50 1.464
418.60 1.464
418.70 1.465
418.80 1.465
418.90 1.466
419.00 1.466
419.10 1.466
419.20 1.466
419.30 1.466
419.40 1.467
419.50 1.467
419.60 1.467
419.70 1.467
419.80 1.467
419.90 1.467
420.00 1.466
420.10 1.466
420.20 1.466
420.30 1.466
420.40 1.466
420.50 1.465
420.60 1.465
420.70 1.465
420.80 1.464
420.90 1.464
421.00 1.463
421.10 1.463
421.20 1.462
421.30 1.462
421.40 1.461
421.50 1.461
421.60 1.46
421.70 1.46
421.80 1.459
421.90 1.458
422.00 1.457
422.10 1.457
422.20 1.456
422.30 1.455
422.40 1.454
422.50 1.453
422.60 1.453
422.70 1.452
422.80 1.451
422.90 1.45
423.00 1.449
423.10 1.448
423.20 1.447
423.30 1.445
423.40 1.444
423.50 1.443
423.60 1.442
423.70 1.441
423.80 1.44
423.90 1.438
424.00 1.437
424.10 1.436
424.20 1.434
424.30 1.433
424.40 1.431
424.50 1.43
424.60 1.429
424.70 1.427
424.80 1.425
424.90 1.424
425.00 1.422
425.10 1.42
425.20 1.419
425.30 1.417
425.40 1.415
425.50 1.413
425.60 1.411
425.70 1.409
425.80 1.407
425.90 1.405
426.00 1.403
426.10 1.401
426.20 1.398
426.30 1.396
426.40 1.393
426.50 1.391
426.60 1.388
426.70 1.386
426.80 1.383
426.90 1.381
427.00 1.378
427.10 1.375
427.20 1.372
427.30 1.369
427.40 1.366
427.50 1.363
427.60 1.359
427.70 1.356
427.80 1.353
427.90 1.349
428.00 1.345
428.10 1.341
428.20 1.338
428.30 1.333
428.40 1.329
428.50 1.325
428.60 1.32
428.70 1.316
428.80 1.311
428.90 1.306
429.00 1.301
429.10 1.296
429.20 1.29
429.30 1.285
429.40 1.279
429.50 1.273
429.60 1.267
429.70 1.26
429.80 1.254
429.90 1.247
430.00 1.239
430.10 1.232
430.20 1.224
430.30 1.216
430.40 1.208
430.50 1.199
430.60 1.19
430.70 1.181
430.80 1.172
430.90 1.162
431.00 1.152
431.10 1.141
431.20 1.13
431.30 1.119
431.40 1.107
431.50 1.095
431.60 1.082
431.70 1.069
431.80 1.055
431.90 1.04
432.00 1.024
432.10 1.007
432.20 0.9881
432.30 0.9681
432.40 0.9468
432.50 0.9227
432.60 0.8972
432.70 0.8704
432.80 0.8423
432.90 0.8143
433.00 0.7865
433.10 0.7594
433.20 0.7318
433.30 0.7035
433.40 0.6723
433.50 0.6397
433.60 0.6056
433.70 0.5706
433.80 0.5334
433.90 0.494
434.00 0.4021
434.10 0.4033
434.20 0.4974
434.30 0.536
434.40 0.5726
434.50 0.6072
434.60 0.6407
434.70 0.6727
434.80 0.7032
434.90 0.7307
435.00 0.7576
435.10 0.7839
435.20 0.811
435.30 0.8381
435.40 0.8653
435.50 0.891
435.60 0.9153
435.70 0.9382
435.80 0.9582
435.90 0.977
436.00 0.9945
436.10 1.01
436.20 1.025
436.30 1.039
436.40 1.052
436.50 1.064
436.60 1.075
436.70 1.086
436.80 1.096
436.90 1.106
437.00 1.116
437.10 1.125
437.20 1.134
437.30 1.142
437.40 1.151
437.50 1.158
437.60 1.166
437.70 1.173
437.80 1.18
437.90 1.186
438.00 1.193
438.10 1.199
438.20 1.205
438.30 1.21
438.40 1.215
438.50 1.22
438.60 1.225
438.70 1.23
438.80 1.234
438.90 1.238
439.00 1.242
439.10 1.246
439.20 1.25
439.30 1.253
439.40 1.256
439.50 1.26
439.60 1.263
439.70 1.266
439.80 1.268
439.90 1.271
440.00 1.273
440.10 1.276
440.20 1.278
440.30 1.28
440.40 1.282
440.50 1.284
440.60 1.286
440.70 1.288
440.80 1.29
440.90 1.291
441.00 1.293
441.10 1.294
441.20 1.296
441.30 1.297
441.40 1.298
441.50 1.299
441.60 1.301
441.70 1.302
441.80 1.303
441.90 1.304
442.00 1.304
442.10 1.305
442.20 1.306
442.30 1.307
442.40 1.308
442.50 1.308
442.60 1.309
442.70 1.309
442.80 1.31
442.90 1.31
443.00 1.311
443.10 1.311
443.20 1.312
443.30 1.312
443.40 1.312
443.50 1.313
443.60 1.313
443.70 1.313
443.80 1.313
443.90 1.314
444.00 1.314
444.10 1.314
444.20 1.314
444.30 1.314
444.40 1.314
444.50 1.314
444.60 1.314
444.70 1.314
444.80 1.314
444.90 1.314
445.00 1.314
445.10 1.314
445.20 1.314
445.30 1.314
445.40 1.314
445.50 1.314
445.60 1.314
445.70 1.313
445.80 1.313
445.90 1.313
446.00 1.313
446.10 1.313
446.20 1.313
446.30 1.312
446.40 1.312
446.50 1.312
446.60 1.312
446.70 1.311
446.80 1.311
446.90 1.311
447.00 1.31
447.10 1.31
447.20 1.31
447.30 1.309
447.40 1.309
447.50 1.309
447.60 1.308
447.70 1.308
447.80 1.308
447.90 1.307
448.00 1.307
448.10 1.306
448.20 1.306
448.30 1.306
448.40 1.305
448.50 1.305
448.60 1.304
448.70 1.304
448.80 1.303
448.90 1.303
449.00 1.303
449.10 1.302
449.20 1.302
449.30 1.301
449.40 1.301
449.50 1.3
449.60 1.3
449.70 1.299
449.80 1.299
449.90 1.298
450.00 1.298
450.10 1.297
450.20 1.297
450.30 1.296
450.40 1.296
450.50 1.295
450.60 1.295
450.70 1.294
450.80 1.294
450.90 1.293
451.00 1.293
451.10 1.292
451.20 1.292
451.30 1.291
451.40 1.29
451.50 1.29
451.60 1.289
451.70 1.289
451.80 1.288
451.90 1.288
452.00 1.287
452.10 1.287
452.20 1.286
452.30 1.285
452.40 1.285
452.50 1.284
452.60 1.284
452.70 1.283
452.80 1.283
452.90 1.282
453.00 1.281
