# Version 2.1 - nm, norm@500 to 1, cut digits, bergeron_60000_85.dat_60000
# Wavelength(nm)  Flambda(ergs/cm^s/s/nm)
300.00 6.416
300.10 6.408
300.20 6.4
300.30 6.393
300.40 6.385
300.50 6.377
300.60 6.369
300.70 6.361
300.80 6.354
300.90 6.346
301.00 6.338
301.10 6.33
301.20 6.323
301.30 6.315
301.40 6.307
301.50 6.3
301.60 6.292
301.70 6.284
301.80 6.277
301.90 6.269
302.00 6.261
302.10 6.254
302.20 6.246
302.30 6.239
302.40 6.231
302.50 6.224
302.60 6.216
302.70 6.208
302.80 6.201
302.90 6.193
303.00 6.186
303.10 6.178
303.20 6.171
303.30 6.163
303.40 6.156
303.50 6.149
303.60 6.141
303.70 6.134
303.80 6.126
303.90 6.119
304.00 6.111
304.10 6.104
304.20 6.097
304.30 6.089
304.40 6.082
304.50 6.075
304.60 6.067
304.70 6.06
304.80 6.053
304.90 6.045
305.00 6.038
305.10 6.031
305.20 6.024
305.30 6.016
305.40 6.009
305.50 6.002
305.60 5.995
305.70 5.988
305.80 5.98
305.90 5.973
306.00 5.966
306.10 5.959
306.20 5.952
306.30 5.945
306.40 5.937
306.50 5.93
306.60 5.923
306.70 5.916
306.80 5.909
306.90 5.902
307.00 5.895
307.10 5.888
307.20 5.881
307.30 5.874
307.40 5.867
307.50 5.86
307.60 5.853
307.70 5.846
307.80 5.839
307.90 5.832
308.00 5.825
308.10 5.818
308.20 5.811
308.30 5.804
308.40 5.797
308.50 5.79
308.60 5.783
308.70 5.776
308.80 5.77
308.90 5.763
309.00 5.756
309.10 5.749
309.20 5.742
309.30 5.735
309.40 5.728
309.50 5.722
309.60 5.715
309.70 5.708
309.80 5.701
309.90 5.695
310.00 5.688
310.10 5.681
310.20 5.674
310.30 5.668
310.40 5.661
310.50 5.654
310.60 5.647
310.70 5.641
310.80 5.634
310.90 5.627
311.00 5.621
311.10 5.614
311.20 5.608
311.30 5.601
311.40 5.594
311.50 5.588
311.60 5.581
311.70 5.574
311.80 5.568
311.90 5.561
312.00 5.555
312.10 5.548
312.20 5.542
312.30 5.535
312.40 5.529
312.50 5.522
312.60 5.516
312.70 5.509
312.80 5.503
312.90 5.496
313.00 5.49
313.10 5.483
313.20 5.477
313.30 5.47
313.40 5.464
313.50 5.458
313.60 5.451
313.70 5.445
313.80 5.438
313.90 5.432
314.00 5.426
314.10 5.419
314.20 5.413
314.30 5.407
314.40 5.4
314.50 5.394
314.60 5.388
314.70 5.381
314.80 5.375
314.90 5.369
315.00 5.362
315.10 5.356
315.20 5.35
315.30 5.344
315.40 5.338
315.50 5.331
315.60 5.325
315.70 5.319
315.80 5.313
315.90 5.306
316.00 5.3
316.10 5.294
316.20 5.288
316.30 5.282
316.40 5.276
316.50 5.27
316.60 5.263
316.70 5.257
316.80 5.251
316.90 5.245
317.00 5.239
317.10 5.233
317.20 5.227
317.30 5.221
317.40 5.215
317.50 5.209
317.60 5.203
317.70 5.197
317.80 5.191
317.90 5.185
318.00 5.179
318.10 5.173
318.20 5.167
318.30 5.161
318.40 5.155
318.50 5.149
318.60 5.143
318.70 5.137
318.80 5.131
318.90 5.125
319.00 5.119
319.10 5.113
319.20 5.107
319.30 5.101
319.40 5.095
319.50 5.09
319.60 5.084
319.70 5.078
319.80 5.072
319.90 5.066
320.00 5.06
320.10 5.054
320.20 5.049
320.30 5.043
320.40 5.037
320.50 5.031
320.60 5.025
320.70 5.02
320.80 5.014
320.90 5.008
321.00 5.002
321.10 4.997
321.20 4.991
321.30 4.985
321.40 4.979
321.50 4.974
321.60 4.968
321.70 4.962
321.80 4.957
321.90 4.951
322.00 4.945
322.10 4.94
322.20 4.934
322.30 4.928
322.40 4.923
322.50 4.917
322.60 4.912
322.70 4.906
322.80 4.9
322.90 4.895
323.00 4.889
323.10 4.884
323.20 4.878
323.30 4.872
323.40 4.867
323.50 4.861
323.60 4.856
323.70 4.85
323.80 4.845
323.90 4.839
324.00 4.834
324.10 4.828
324.20 4.823
324.30 4.817
324.40 4.812
324.50 4.806
324.60 4.801
324.70 4.795
324.80 4.79
324.90 4.784
325.00 4.779
325.10 4.774
325.20 4.768
325.30 4.763
325.40 4.757
325.50 4.752
325.60 4.747
325.70 4.741
325.80 4.736
325.90 4.731
326.00 4.725
326.10 4.72
326.20 4.714
326.30 4.709
326.40 4.704
326.50 4.699
326.60 4.693
326.70 4.688
326.80 4.683
326.90 4.677
327.00 4.672
327.10 4.667
327.20 4.662
327.30 4.656
327.40 4.651
327.50 4.646
327.60 4.641
327.70 4.635
327.80 4.63
327.90 4.625
328.00 4.62
328.10 4.615
328.20 4.609
328.30 4.604
328.40 4.599
328.50 4.594
328.60 4.589
328.70 4.584
328.80 4.578
328.90 4.573
329.00 4.568
329.10 4.563
329.20 4.558
329.30 4.553
329.40 4.548
329.50 4.543
329.60 4.537
329.70 4.532
329.80 4.527
329.90 4.522
330.00 4.517
330.10 4.512
330.20 4.507
330.30 4.502
330.40 4.497
330.50 4.492
330.60 4.487
330.70 4.482
330.80 4.477
330.90 4.472
331.00 4.467
331.10 4.462
331.20 4.457
331.30 4.452
331.40 4.447
331.50 4.442
331.60 4.437
331.70 4.432
331.80 4.427
331.90 4.422
332.00 4.417
332.10 4.413
332.20 4.408
332.30 4.403
332.40 4.398
332.50 4.393
332.60 4.388
332.70 4.383
332.80 4.378
332.90 4.374
333.00 4.369
333.10 4.364
333.20 4.359
333.30 4.354
333.40 4.349
333.50 4.345
333.60 4.34
333.70 4.335
333.80 4.33
333.90 4.325
334.00 4.321
334.10 4.316
334.20 4.311
334.30 4.306
334.40 4.301
334.50 4.297
334.60 4.292
334.70 4.287
334.80 4.283
334.90 4.278
335.00 4.273
335.10 4.268
335.20 4.264
335.30 4.259
335.40 4.254
335.50 4.25
335.60 4.245
335.70 4.24
335.80 4.236
335.90 4.231
336.00 4.226
336.10 4.222
336.20 4.217
336.30 4.212
336.40 4.208
336.50 4.203
336.60 4.199
336.70 4.194
336.80 4.189
336.90 4.185
337.00 4.18
337.10 4.176
337.20 4.171
337.30 4.166
337.40 4.162
337.50 4.157
337.60 4.153
337.70 4.148
337.80 4.144
337.90 4.139
338.00 4.134
338.10 4.13
338.20 4.125
338.30 4.121
338.40 4.116
338.50 4.112
338.60 4.108
338.70 4.103
338.80 4.099
338.90 4.094
339.00 4.09
339.10 4.085
339.20 4.081
339.30 4.076
339.40 4.072
339.50 4.067
339.60 4.063
339.70 4.059
339.80 4.054
339.90 4.05
340.00 4.045
340.10 4.041
340.20 4.036
340.30 4.032
340.40 4.028
340.50 4.023
340.60 4.019
340.70 4.015
340.80 4.01
340.90 4.006
341.00 4.002
341.10 3.997
341.20 3.993
341.30 3.989
341.40 3.984
341.50 3.98
341.60 3.976
341.70 3.971
341.80 3.967
341.90 3.963
342.00 3.958
342.10 3.954
342.20 3.95
342.30 3.946
342.40 3.941
342.50 3.937
342.60 3.933
342.70 3.929
342.80 3.924
342.90 3.92
343.00 3.916
343.10 3.912
343.20 3.907
343.30 3.903
343.40 3.899
343.50 3.895
343.60 3.891
343.70 3.886
343.80 3.882
343.90 3.878
344.00 3.874
344.10 3.87
344.20 3.866
344.30 3.861
344.40 3.857
344.50 3.853
344.60 3.849
344.70 3.845
344.80 3.841
344.90 3.837
345.00 3.833
345.10 3.828
345.20 3.824
345.30 3.82
345.40 3.816
345.50 3.812
345.60 3.808
345.70 3.804
345.80 3.8
345.90 3.796
346.00 3.792
346.10 3.788
346.20 3.784
346.30 3.779
346.40 3.775
346.50 3.771
346.60 3.767
346.70 3.763
346.80 3.759
346.90 3.755
347.00 3.751
347.10 3.747
347.20 3.743
347.30 3.739
347.40 3.735
347.50 3.731
347.60 3.727
347.70 3.723
347.80 3.719
347.90 3.715
348.00 3.712
348.10 3.708
348.20 3.704
348.30 3.7
348.40 3.696
348.50 3.692
348.60 3.688
348.70 3.684
348.80 3.68
348.90 3.676
349.00 3.672
349.10 3.668
349.20 3.665
349.30 3.661
349.40 3.657
349.50 3.653
349.60 3.649
349.70 3.645
349.80 3.641
349.90 3.637
350.00 3.634
350.10 3.63
350.20 3.626
350.30 3.622
350.40 3.618
350.50 3.614
350.60 3.611
350.70 3.607
350.80 3.603
350.90 3.599
351.00 3.595
351.10 3.592
351.20 3.588
351.30 3.584
351.40 3.58
351.50 3.576
351.60 3.573
351.70 3.569
351.80 3.565
351.90 3.561
352.00 3.558
352.10 3.554
352.20 3.55
352.30 3.546
352.40 3.543
352.50 3.539
352.60 3.535
352.70 3.532
352.80 3.528
352.90 3.524
353.00 3.52
353.10 3.517
353.20 3.513
353.30 3.509
353.40 3.506
353.50 3.502
353.60 3.498
353.70 3.495
353.80 3.491
353.90 3.487
354.00 3.484
354.10 3.48
354.20 3.476
354.30 3.473
354.40 3.469
354.50 3.466
354.60 3.462
354.70 3.458
354.80 3.455
354.90 3.451
355.00 3.447
355.10 3.444
355.20 3.44
355.30 3.437
355.40 3.433
355.50 3.429
355.60 3.426
355.70 3.422
355.80 3.419
355.90 3.415
356.00 3.412
356.10 3.408
356.20 3.405
356.30 3.401
356.40 3.397
356.50 3.394
356.60 3.39
356.70 3.387
356.80 3.383
356.90 3.38
357.00 3.376
357.10 3.373
357.20 3.369
357.30 3.366
357.40 3.362
357.50 3.359
357.60 3.355
357.70 3.352
357.80 3.348
357.90 3.345
358.00 3.341
358.10 3.338
358.20 3.335
358.30 3.331
358.40 3.328
358.50 3.324
358.60 3.321
358.70 3.317
358.80 3.314
358.90 3.31
359.00 3.307
359.10 3.304
359.20 3.3
359.30 3.297
359.40 3.293
359.50 3.29
359.60 3.287
359.70 3.283
359.80 3.28
359.90 3.276
360.00 3.273
360.10 3.27
360.20 3.266
360.30 3.263
360.40 3.26
360.50 3.256
360.60 3.253
360.70 3.25
360.80 3.246
360.90 3.243
361.00 3.24
361.10 3.236
361.20 3.233
361.30 3.23
361.40 3.226
361.50 3.223
361.60 3.22
361.70 3.216
361.80 3.213
361.90 3.21
362.00 3.206
362.10 3.203
362.20 3.2
362.30 3.197
362.40 3.193
362.50 3.19
362.60 3.187
362.70 3.184
362.80 3.18
362.90 3.177
363.00 3.174
363.10 3.17
363.20 3.167
363.30 3.164
363.40 3.161
363.50 3.158
363.60 3.154
363.70 3.151
363.80 3.148
363.90 3.145
364.00 3.142
364.10 3.138
364.20 3.135
364.30 3.132
364.40 3.129
364.50 3.126
364.60 3.122
364.70 3.119
364.80 3.116
364.90 3.113
365.00 3.11
365.10 3.107
365.20 3.103
365.30 3.1
365.40 3.097
365.50 3.094
365.60 3.091
365.70 3.088
365.80 3.084
365.90 3.081
366.00 3.078
366.10 3.075
366.20 3.072
366.30 3.069
366.40 3.066
366.50 3.062
366.60 3.059
366.70 3.056
366.80 3.053
366.90 3.05
367.00 3.047
367.10 3.043
367.20 3.04
367.30 3.037
367.40 3.034
367.50 3.031
367.60 3.028
367.70 3.025
367.80 3.022
367.90 3.018
368.00 3.015
368.10 3.012
368.20 3.009
368.30 3.006
368.40 3.003
368.50 3
368.60 2.996
368.70 2.993
368.80 2.99
368.90 2.987
369.00 2.984
369.10 2.981
369.20 2.978
369.30 2.975
369.40 2.971
369.50 2.968
369.60 2.965
369.70 2.962
369.80 2.959
369.90 2.956
370.00 2.953
370.10 2.95
370.20 2.947
370.30 2.944
370.40 2.941
370.50 2.938
370.60 2.935
370.70 2.932
370.80 2.929
370.90 2.926
371.00 2.923
371.10 2.92
371.20 2.917
371.30 2.914
371.40 2.91
371.50 2.907
371.60 2.904
371.70 2.901
371.80 2.898
371.90 2.895
372.00 2.893
372.10 2.89
372.20 2.887
372.30 2.884
372.40 2.881
372.50 2.878
372.60 2.875
372.70 2.872
372.80 2.869
372.90 2.866
373.00 2.864
373.10 2.861
373.20 2.858
373.30 2.855
373.40 2.852
373.50 2.849
373.60 2.846
373.70 2.843
373.80 2.841
373.90 2.838
374.00 2.835
374.10 2.832
374.20 2.829
374.30 2.826
374.40 2.823
374.50 2.82
374.60 2.818
374.70 2.815
374.80 2.812
374.90 2.809
375.00 2.806
375.10 2.803
375.20 2.8
375.30 2.798
375.40 2.795
375.50 2.792
375.60 2.789
375.70 2.786
375.80 2.783
375.90 2.78
376.00 2.778
376.10 2.775
376.20 2.772
376.30 2.769
376.40 2.766
376.50 2.764
376.60 2.761
376.70 2.758
376.80 2.755
376.90 2.753
377.00 2.75
377.10 2.747
377.20 2.744
377.30 2.742
377.40 2.739
377.50 2.736
377.60 2.733
377.70 2.731
377.80 2.728
377.90 2.725
378.00 2.723
378.10 2.72
378.20 2.717
378.30 2.715
378.40 2.712
378.50 2.709
378.60 2.707
378.70 2.704
378.80 2.701
378.90 2.699
379.00 2.696
379.10 2.694
379.20 2.691
379.30 2.688
379.40 2.686
379.50 2.683
379.60 2.681
379.70 2.678
379.80 2.675
379.90 2.673
380.00 2.67
380.10 2.668
380.20 2.665
380.30 2.663
380.40 2.66
380.50 2.658
380.60 2.655
380.70 2.653
380.80 2.65
380.90 2.648
381.00 2.645
381.10 2.643
381.20 2.64
381.30 2.638
381.40 2.635
381.50 2.633
381.60 2.63
381.70 2.628
381.80 2.625
381.90 2.623
382.00 2.62
382.10 2.618
382.20 2.615
382.30 2.613
382.40 2.61
382.50 2.608
382.60 2.605
382.70 2.603
382.80 2.6
382.90 2.598
383.00 2.595
383.10 2.593
383.20 2.59
383.30 2.588
383.40 2.586
383.50 2.583
383.60 2.581
383.70 2.579
383.80 2.576
383.90 2.574
384.00 2.572
384.10 2.57
384.20 2.567
384.30 2.565
384.40 2.563
384.50 2.561
384.60 2.558
384.70 2.556
384.80 2.554
384.90 2.552
385.00 2.55
385.10 2.547
385.20 2.545
385.30 2.543
385.40 2.541
385.50 2.538
385.60 2.536
385.70 2.534
385.80 2.531
385.90 2.529
386.00 2.527
386.10 2.524
386.20 2.522
386.30 2.519
386.40 2.517
386.50 2.514
386.60 2.512
386.70 2.51
386.80 2.507
386.90 2.505
387.00 2.502
387.10 2.499
387.20 2.497
387.30 2.494
387.40 2.492
387.50 2.489
387.60 2.487
387.70 2.484
387.80 2.481
387.90 2.479
388.00 2.476
388.10 2.474
388.20 2.471
388.30 2.469
388.40 2.466
388.50 2.464
388.60 2.462
388.70 2.459
388.80 2.457
388.90 2.455
389.00 2.453
389.10 2.451
389.20 2.449
389.30 2.447
389.40 2.446
389.50 2.444
389.60 2.442
389.70 2.441
389.80 2.439
389.90 2.438
390.00 2.436
390.10 2.434
390.20 2.433
390.30 2.431
390.40 2.43
390.50 2.428
390.60 2.426
390.70 2.425
390.80 2.423
390.90 2.421
391.00 2.419
391.10 2.417
391.20 2.416
391.30 2.414
391.40 2.412
391.50 2.41
391.60 2.408
391.70 2.406
391.80 2.404
391.90 2.402
392.00 2.4
392.10 2.398
392.20 2.395
392.30 2.393
392.40 2.391
392.50 2.389
392.60 2.386
392.70 2.384
392.80 2.381
392.90 2.379
393.00 2.376
393.10 2.374
393.20 2.371
393.30 2.368
393.40 2.366
393.50 2.363
393.60 2.36
393.70 2.357
393.80 2.354
393.90 2.351
394.00 2.348
394.10 2.345
394.20 2.342
394.30 2.339
394.40 2.336
394.50 2.333
394.60 2.329
394.70 2.326
394.80 2.323
394.90 2.319
395.00 2.316
395.10 2.312
395.20 2.309
395.30 2.305
395.40 2.301
395.50 2.298
395.60 2.294
395.70 2.291
395.80 2.287
395.90 2.283
396.00 2.279
396.10 2.276
396.20 2.272
396.30 2.268
396.40 2.265
396.50 2.261
396.60 2.257
396.70 2.254
396.80 2.251
396.90 2.248
397.00 2.245
397.10 2.244
397.20 2.243
397.30 2.243
397.40 2.243
397.50 2.242
397.60 2.242
397.70 2.242
397.80 2.242
397.90 2.242
398.00 2.242
398.10 2.242
398.20 2.242
398.30 2.242
398.40 2.242
398.50 2.242
398.60 2.242
398.70 2.242
398.80 2.242
398.90 2.242
399.00 2.242
399.10 2.242
399.20 2.241
399.30 2.241
399.40 2.241
399.50 2.24
399.60 2.24
399.70 2.239
399.80 2.239
399.90 2.238
400.00 2.237
400.10 2.237
400.20 2.236
400.30 2.235
400.40 2.234
400.50 2.233
400.60 2.233
400.70 2.232
400.80 2.231
400.90 2.229
401.00 2.228
401.10 2.227
401.20 2.226
401.30 2.225
401.40 2.223
401.50 2.222
401.60 2.221
401.70 2.219
401.80 2.218
401.90 2.216
402.00 2.215
402.10 2.213
402.20 2.211
402.30 2.21
402.40 2.208
402.50 2.206
402.60 2.204
402.70 2.203
402.80 2.201
402.90 2.199
403.00 2.197
403.10 2.195
403.20 2.192
403.30 2.19
403.40 2.188
403.50 2.186
403.60 2.184
403.70 2.181
403.80 2.179
403.90 2.176
404.00 2.174
404.10 2.171
404.20 2.169
404.30 2.166
404.40 2.163
404.50 2.161
404.60 2.158
404.70 2.155
404.80 2.152
404.90 2.149
405.00 2.146
405.10 2.143
405.20 2.14
405.30 2.137
405.40 2.133
405.50 2.13
405.60 2.127
405.70 2.123
405.80 2.12
405.90 2.116
406.00 2.112
406.10 2.109
406.20 2.105
406.30 2.101
406.40 2.097
406.50 2.093
406.60 2.089
406.70 2.085
406.80 2.08
406.90 2.076
407.00 2.072
407.10 2.067
407.20 2.063
407.30 2.058
407.40 2.053
407.50 2.048
407.60 2.043
407.70 2.038
407.80 2.033
407.90 2.028
408.00 2.023
408.10 2.017
408.20 2.012
408.30 2.007
408.40 2.001
408.50 1.995
408.60 1.99
408.70 1.984
408.80 1.978
408.90 1.972
409.00 1.966
409.10 1.96
409.20 1.955
409.30 1.949
409.40 1.943
409.50 1.938
409.60 1.933
409.70 1.928
409.80 1.925
409.90 1.921
410.00 1.92
410.10 1.92
410.20 1.92
410.30 1.916
410.40 1.913
410.50 1.912
410.60 1.913
410.70 1.914
410.80 1.915
410.90 1.917
411.00 1.919
411.10 1.922
411.20 1.924
411.30 1.927
411.40 1.929
411.50 1.931
411.60 1.934
411.70 1.936
411.80 1.939
411.90 1.941
412.00 1.943
412.10 1.945
412.20 1.947
412.30 1.949
412.40 1.951
412.50 1.953
412.60 1.954
412.70 1.956
412.80 1.957
412.90 1.959
413.00 1.96
413.10 1.961
413.20 1.962
413.30 1.963
413.40 1.964
413.50 1.965
413.60 1.966
413.70 1.967
413.80 1.968
413.90 1.968
414.00 1.969
414.10 1.969
414.20 1.97
414.30 1.97
414.40 1.97
414.50 1.97
414.60 1.97
414.70 1.97
414.80 1.97
414.90 1.97
415.00 1.97
415.10 1.97
415.20 1.97
415.30 1.97
415.40 1.969
415.50 1.969
415.60 1.969
415.70 1.968
415.80 1.968
415.90 1.967
416.00 1.967
416.10 1.966
416.20 1.965
416.30 1.965
416.40 1.964
416.50 1.963
416.60 1.962
416.70 1.962
416.80 1.961
416.90 1.96
417.00 1.959
417.10 1.958
417.20 1.957
417.30 1.956
417.40 1.955
417.50 1.954
417.60 1.953
417.70 1.952
417.80 1.951
417.90 1.95
418.00 1.948
418.10 1.947
418.20 1.946
418.30 1.945
418.40 1.944
418.50 1.942
418.60 1.941
418.70 1.94
418.80 1.938
418.90 1.937
419.00 1.936
419.10 1.934
419.20 1.933
419.30 1.932
419.40 1.93
419.50 1.929
419.60 1.927
419.70 1.926
419.80 1.925
419.90 1.923
420.00 1.922
420.10 1.92
420.20 1.919
420.30 1.917
420.40 1.916
420.50 1.914
420.60 1.912
420.70 1.911
420.80 1.909
420.90 1.908
421.00 1.906
421.10 1.905
421.20 1.903
421.30 1.901
421.40 1.9
421.50 1.898
421.60 1.896
421.70 1.895
421.80 1.893
421.90 1.891
422.00 1.89
422.10 1.888
422.20 1.886
422.30 1.885
422.40 1.883
422.50 1.881
422.60 1.879
422.70 1.878
422.80 1.876
422.90 1.874
423.00 1.872
423.10 1.87
423.20 1.869
423.30 1.867
423.40 1.865
423.50 1.863
423.60 1.861
423.70 1.859
423.80 1.858
423.90 1.856
424.00 1.854
424.10 1.852
424.20 1.85
424.30 1.848
424.40 1.846
424.50 1.844
424.60 1.842
424.70 1.84
424.80 1.838
424.90 1.836
425.00 1.834
425.10 1.832
425.20 1.83
425.30 1.828
425.40 1.826
425.50 1.824
425.60 1.821
425.70 1.819
425.80 1.817
425.90 1.815
426.00 1.813
426.10 1.81
426.20 1.808
426.30 1.806
426.40 1.804
426.50 1.801
426.60 1.799
426.70 1.796
426.80 1.794
426.90 1.792
427.00 1.789
427.10 1.787
427.20 1.784
427.30 1.781
427.40 1.779
427.50 1.776
427.60 1.774
427.70 1.771
427.80 1.768
427.90 1.765
428.00 1.763
428.10 1.76
428.20 1.757
428.30 1.754
428.40 1.751
428.50 1.748
428.60 1.745
428.70 1.741
428.80 1.738
428.90 1.735
429.00 1.732
429.10 1.728
429.20 1.725
429.30 1.721
429.40 1.718
429.50 1.714
429.60 1.71
429.70 1.707
429.80 1.703
429.90 1.699
430.00 1.695
430.10 1.691
430.20 1.686
430.30 1.682
430.40 1.678
430.50 1.673
430.60 1.669
430.70 1.664
430.80 1.659
430.90 1.654
431.00 1.649
431.10 1.644
431.20 1.639
431.30 1.634
431.40 1.629
431.50 1.623
431.60 1.617
431.70 1.612
431.80 1.606
431.90 1.6
432.00 1.594
432.10 1.588
432.20 1.581
432.30 1.575
432.40 1.569
432.50 1.562
432.60 1.555
432.70 1.549
432.80 1.542
432.90 1.535
433.00 1.528
433.10 1.522
433.20 1.515
433.30 1.508
433.40 1.502
433.50 1.495
433.60 1.488
433.70 1.482
433.80 1.474
433.90 1.467
434.00 1.459
434.10 1.458
434.20 1.464
434.30 1.469
434.40 1.474
434.50 1.478
434.60 1.482
434.70 1.486
434.80 1.49
434.90 1.495
435.00 1.499
435.10 1.503
435.20 1.507
435.30 1.511
435.40 1.516
435.50 1.52
435.60 1.524
435.70 1.527
435.80 1.531
435.90 1.535
436.00 1.538
436.10 1.542
436.20 1.545
436.30 1.548
436.40 1.551
436.50 1.554
436.60 1.557
436.70 1.56
436.80 1.562
436.90 1.565
437.00 1.567
437.10 1.569
437.20 1.571
437.30 1.573
437.40 1.575
437.50 1.577
437.60 1.578
437.70 1.58
437.80 1.581
437.90 1.582
438.00 1.584
438.10 1.585
438.20 1.586
438.30 1.587
438.40 1.588
438.50 1.589
438.60 1.589
438.70 1.59
438.80 1.591
438.90 1.591
439.00 1.592
439.10 1.592
439.20 1.592
439.30 1.593
439.40 1.593
439.50 1.593
439.60 1.593
439.70 1.593
439.80 1.593
439.90 1.593
440.00 1.593
440.10 1.593
440.20 1.593
440.30 1.592
440.40 1.592
440.50 1.592
440.60 1.592
440.70 1.591
440.80 1.591
440.90 1.59
441.00 1.59
441.10 1.589
441.20 1.589
441.30 1.588
441.40 1.588
441.50 1.587
441.60 1.587
441.70 1.586
441.80 1.585
441.90 1.585
442.00 1.584
442.10 1.583
442.20 1.582
442.30 1.582
442.40 1.581
442.50 1.58
442.60 1.579
442.70 1.578
442.80 1.577
442.90 1.577
443.00 1.576
443.10 1.575
443.20 1.574
443.30 1.573
443.40 1.572
443.50 1.571
443.60 1.57
443.70 1.569
443.80 1.568
443.90 1.567
444.00 1.566
444.10 1.565
444.20 1.564
444.30 1.563
444.40 1.562
444.50 1.561
444.60 1.56
444.70 1.559
444.80 1.558
444.90 1.557
445.00 1.556
445.10 1.554
445.20 1.553
445.30 1.552
445.40 1.551
445.50 1.55
445.60 1.549
445.70 1.548
445.80 1.547
445.90 1.546
446.00 1.544
446.10 1.543
446.20 1.542
446.30 1.541
446.40 1.54
446.50 1.539
446.60 1.538
446.70 1.536
446.80 1.535
446.90 1.534
447.00 1.533
447.10 1.532
447.20 1.531
447.30 1.529
447.40 1.528
447.50 1.527
447.60 1.526
447.70 1.525
447.80 1.524
447.90 1.522
448.00 1.521
448.10 1.52
448.20 1.519
448.30 1.518
448.40 1.516
448.50 1.515
448.60 1.514
448.70 1.513
448.80 1.512
448.90 1.51
449.00 1.509
449.10 1.508
449.20 1.507
449.30 1.506
449.40 1.504
449.50 1.503
449.60 1.502
449.70 1.501
449.80 1.5
449.90 1.498
450.00 1.497
450.10 1.496
450.20 1.495
450.30 1.494
450.40 1.492
450.50 1.491
450.60 1.49
450.70 1.489
450.80 1.488
450.90 1.486
451.00 1.485
451.10 1.484
451.20 1.483
451.30 1.482
451.40 1.48
451.50 1.479
451.60 1.478
451.70 1.477
451.80 1.476
451.90 1.474
452.00 1.473
452.10 1.472
452.20 1.471
452.30 1.47
452.40 1.468
452.50 1.467
452.60 1.466
452.70 1.465
452.80 1.464
452.90 1.462
453.00 1.461
453.10 1.46
453.20 1.459
453.30 1.458
453.40 1.456
453.50 1.455
453.60 1.454
453.70 1.453
453.80 1.452
453.90 1.45
454.00 1.449
454.10 1.448
454.20 1.447
