# Version 2.1 - nm, norm@500 to 1, cut digits, bergeron_1500_70.dat_1500
# Wavelength(nm)  Flambda(ergs/cm^s/s/nm)
300.00 0.008579
300.10 0.008622
300.20 0.008667
300.30 0.008712
300.40 0.008757
300.50 0.008802
300.60 0.008847
300.70 0.008892
300.80 0.008936
300.90 0.008981
301.00 0.009026
301.10 0.009071
301.20 0.009115
301.30 0.00916
301.40 0.009204
301.50 0.009248
301.60 0.009293
301.70 0.009337
301.80 0.009381
301.90 0.009426
302.00 0.009471
302.10 0.009518
302.20 0.009566
302.30 0.009614
302.40 0.009663
302.50 0.009711
302.60 0.009759
302.70 0.009807
302.80 0.009855
302.90 0.009903
303.00 0.00995
303.10 0.009998
303.20 0.01005
303.30 0.01009
303.40 0.01014
303.50 0.01019
303.60 0.01024
303.70 0.01028
303.80 0.01033
303.90 0.01038
304.00 0.01043
304.10 0.01048
304.20 0.01053
304.30 0.01058
304.40 0.01063
304.50 0.01068
304.60 0.01073
304.70 0.01079
304.80 0.01084
304.90 0.01089
305.00 0.01094
305.10 0.01099
305.20 0.01104
305.30 0.01109
305.40 0.01114
305.50 0.01119
305.60 0.01124
305.70 0.0113
305.80 0.01135
305.90 0.0114
306.00 0.01145
306.10 0.0115
306.20 0.01156
306.30 0.01161
306.40 0.01167
306.50 0.01172
306.60 0.01178
306.70 0.01183
306.80 0.01189
306.90 0.01194
307.00 0.012
307.10 0.01205
307.20 0.01211
307.30 0.01216
307.40 0.01222
307.50 0.01227
307.60 0.01232
307.70 0.01238
307.80 0.01243
307.90 0.01249
308.00 0.01254
308.10 0.0126
308.20 0.01266
308.30 0.01272
308.40 0.01278
308.50 0.01284
308.60 0.01289
308.70 0.01295
308.80 0.01301
308.90 0.01307
309.00 0.01313
309.10 0.01319
309.20 0.01325
309.30 0.0133
309.40 0.01336
309.50 0.01342
309.60 0.01348
309.70 0.01354
309.80 0.01359
309.90 0.01365
310.00 0.01371
310.10 0.01377
310.20 0.01384
310.30 0.0139
310.40 0.01396
310.50 0.01403
310.60 0.01409
310.70 0.01415
310.80 0.01421
310.90 0.01428
311.00 0.01434
311.10 0.0144
311.20 0.01447
311.30 0.01453
311.40 0.01459
311.50 0.01465
311.60 0.01472
311.70 0.01478
311.80 0.01484
311.90 0.0149
312.00 0.01496
312.10 0.01503
312.20 0.01509
312.30 0.01516
312.40 0.01522
312.50 0.01529
312.60 0.01536
312.70 0.01542
312.80 0.01549
312.90 0.01556
313.00 0.01563
313.10 0.01569
313.20 0.01576
313.30 0.01583
313.40 0.01589
313.50 0.01596
313.60 0.01603
313.70 0.01609
313.80 0.01616
313.90 0.01623
314.00 0.0163
314.10 0.01636
314.20 0.01643
314.30 0.01651
314.40 0.01658
314.50 0.01665
314.60 0.01672
314.70 0.01679
314.80 0.01686
314.90 0.01694
315.00 0.01701
315.10 0.01708
315.20 0.01715
315.30 0.01722
315.40 0.01729
315.50 0.01736
315.60 0.01743
315.70 0.0175
315.80 0.01757
315.90 0.01765
316.00 0.01772
316.10 0.01779
316.20 0.01787
316.30 0.01794
316.40 0.01802
316.50 0.0181
316.60 0.01817
316.70 0.01825
316.80 0.01832
316.90 0.0184
317.00 0.01848
317.10 0.01855
317.20 0.01863
317.30 0.0187
317.40 0.01878
317.50 0.01885
317.60 0.01893
317.70 0.019
317.80 0.01908
317.90 0.01916
318.00 0.01923
318.10 0.01931
318.20 0.01939
318.30 0.01947
318.40 0.01956
318.50 0.01964
318.60 0.01972
318.70 0.0198
318.80 0.01988
318.90 0.01996
319.00 0.02004
319.10 0.02012
319.20 0.0202
319.30 0.02028
319.40 0.02036
319.50 0.02044
319.60 0.02052
319.70 0.0206
319.80 0.02068
319.90 0.02076
320.00 0.02085
320.10 0.02093
320.20 0.02102
320.30 0.0211
320.40 0.02119
320.50 0.02128
320.60 0.02136
320.70 0.02145
320.80 0.02154
320.90 0.02162
321.00 0.02171
321.10 0.02179
321.20 0.02188
321.30 0.02197
321.40 0.02205
321.50 0.02214
321.60 0.02222
321.70 0.02231
321.80 0.02239
321.90 0.02248
322.00 0.02256
322.10 0.02266
322.20 0.02275
322.30 0.02284
322.40 0.02293
322.50 0.02302
322.60 0.02311
322.70 0.02321
322.80 0.0233
322.90 0.02339
323.00 0.02348
323.10 0.02357
323.20 0.02366
323.30 0.02375
323.40 0.02384
323.50 0.02393
323.60 0.02402
323.70 0.02412
323.80 0.02421
323.90 0.0243
324.00 0.02439
324.10 0.02448
324.20 0.02458
324.30 0.02468
324.40 0.02478
324.50 0.02487
324.60 0.02497
324.70 0.02507
324.80 0.02517
324.90 0.02526
325.00 0.02536
325.10 0.02546
325.20 0.02555
325.30 0.02565
325.40 0.02575
325.50 0.02584
325.60 0.02594
325.70 0.02604
325.80 0.02613
325.90 0.02623
326.00 0.02633
326.10 0.02643
326.20 0.02653
326.30 0.02663
326.40 0.02674
326.50 0.02684
326.60 0.02694
326.70 0.02705
326.80 0.02715
326.90 0.02725
327.00 0.02736
327.10 0.02746
327.20 0.02756
327.30 0.02766
327.40 0.02777
327.50 0.02787
327.60 0.02797
327.70 0.02807
327.80 0.02817
327.90 0.02828
328.00 0.02838
328.10 0.02849
328.20 0.0286
328.30 0.02871
328.40 0.02882
328.50 0.02893
328.60 0.02904
328.70 0.02915
328.80 0.02925
328.90 0.02936
329.00 0.02947
329.10 0.02958
329.20 0.02969
329.30 0.0298
329.40 0.02991
329.50 0.03001
329.60 0.03012
329.70 0.03023
329.80 0.03034
329.90 0.03045
330.00 0.03055
330.10 0.03067
330.20 0.03079
330.30 0.0309
330.40 0.03102
330.50 0.03113
330.60 0.03125
330.70 0.03137
330.80 0.03148
330.90 0.0316
331.00 0.03171
331.10 0.03183
331.20 0.03194
331.30 0.03206
331.40 0.03217
331.50 0.03229
331.60 0.0324
331.70 0.03251
331.80 0.03263
331.90 0.03274
332.00 0.03286
332.10 0.03298
332.20 0.0331
332.30 0.03322
332.40 0.03335
332.50 0.03347
332.60 0.03359
332.70 0.03371
332.80 0.03384
332.90 0.03396
333.00 0.03408
333.10 0.0342
333.20 0.03432
333.30 0.03444
333.40 0.03457
333.50 0.03469
333.60 0.03481
333.70 0.03493
333.80 0.03505
333.90 0.03517
334.00 0.03529
334.10 0.03542
334.20 0.03555
334.30 0.03568
334.40 0.03581
334.50 0.03594
334.60 0.03607
334.70 0.0362
334.80 0.03633
334.90 0.03645
335.00 0.03658
335.10 0.03671
335.20 0.03684
335.30 0.03697
335.40 0.0371
335.50 0.03722
335.60 0.03735
335.70 0.03748
335.80 0.03761
335.90 0.03773
336.00 0.03786
336.10 0.038
336.20 0.03813
336.30 0.03827
336.40 0.03841
336.50 0.03854
336.60 0.03868
336.70 0.03882
336.80 0.03895
336.90 0.03909
337.00 0.03922
337.10 0.03936
337.20 0.03949
337.30 0.03963
337.40 0.03976
337.50 0.0399
337.60 0.04003
337.70 0.04017
337.80 0.0403
337.90 0.04044
338.00 0.04057
338.10 0.04072
338.20 0.04086
338.30 0.041
338.40 0.04115
338.50 0.04129
338.60 0.04144
338.70 0.04158
338.80 0.04172
338.90 0.04187
339.00 0.04201
339.10 0.04215
339.20 0.04229
339.30 0.04244
339.40 0.04258
339.50 0.04272
339.60 0.04286
339.70 0.043
339.80 0.04315
339.90 0.04329
340.00 0.04343
340.10 0.04358
340.20 0.04373
340.30 0.04388
340.40 0.04404
340.50 0.04419
340.60 0.04434
340.70 0.04449
340.80 0.04464
340.90 0.04479
341.00 0.04494
341.10 0.04509
341.20 0.04524
341.30 0.04539
341.40 0.04554
341.50 0.04569
341.60 0.04584
341.70 0.04599
341.80 0.04614
341.90 0.04629
342.00 0.04644
342.10 0.0466
342.20 0.04676
342.30 0.04692
342.40 0.04708
342.50 0.04723
342.60 0.04739
342.70 0.04755
342.80 0.04771
342.90 0.04787
343.00 0.04803
343.10 0.04819
343.20 0.04834
343.30 0.0485
343.40 0.04866
343.50 0.04882
343.60 0.04897
343.70 0.04913
343.80 0.04929
343.90 0.04944
344.00 0.0496
344.10 0.04977
344.20 0.04994
344.30 0.0501
344.40 0.05027
344.50 0.05044
344.60 0.0506
344.70 0.05077
344.80 0.05094
344.90 0.0511
345.00 0.05127
345.10 0.05144
345.20 0.0516
345.30 0.05177
345.40 0.05193
345.50 0.0521
345.60 0.05226
345.70 0.05243
345.80 0.05259
345.90 0.05276
346.00 0.05292
346.10 0.0531
346.20 0.05327
346.30 0.05345
346.40 0.05363
346.50 0.0538
346.60 0.05398
346.70 0.05415
346.80 0.05433
346.90 0.0545
347.00 0.05468
347.10 0.05485
347.20 0.05503
347.30 0.0552
347.40 0.05537
347.50 0.05555
347.60 0.05572
347.70 0.05589
347.80 0.05607
347.90 0.05624
348.00 0.05641
348.10 0.0566
348.20 0.05678
348.30 0.05696
348.40 0.05715
348.50 0.05733
348.60 0.05752
348.70 0.0577
348.80 0.05788
348.90 0.05807
349.00 0.05825
349.10 0.05843
349.20 0.05862
349.30 0.0588
349.40 0.05898
349.50 0.05916
349.60 0.05934
349.70 0.05952
349.80 0.05971
349.90 0.05989
350.00 0.06007
350.10 0.06026
350.20 0.06045
350.30 0.06065
350.40 0.06084
350.50 0.06103
350.60 0.06123
350.70 0.06142
350.80 0.06161
350.90 0.0618
351.00 0.062
351.10 0.06219
351.20 0.06238
351.30 0.06257
351.40 0.06276
351.50 0.06295
351.60 0.06314
351.70 0.06333
351.80 0.06352
351.90 0.06371
352.00 0.0639
352.10 0.0641
352.20 0.06431
352.30 0.06451
352.40 0.06471
352.50 0.06491
352.60 0.06512
352.70 0.06532
352.80 0.06552
352.90 0.06572
353.00 0.06592
353.10 0.06612
353.20 0.06632
353.30 0.06652
353.40 0.06672
353.50 0.06692
353.60 0.06712
353.70 0.06732
353.80 0.06752
353.90 0.06771
354.00 0.06791
354.10 0.06812
354.20 0.06834
354.30 0.06855
354.40 0.06876
354.50 0.06897
354.60 0.06918
354.70 0.06939
354.80 0.0696
354.90 0.06981
355.00 0.07002
355.10 0.07023
355.20 0.07044
355.30 0.07065
355.40 0.07086
355.50 0.07107
355.60 0.07128
355.70 0.07148
355.80 0.07169
355.90 0.0719
356.00 0.07211
356.10 0.07233
356.20 0.07255
356.30 0.07277
356.40 0.07299
356.50 0.07321
356.60 0.07343
356.70 0.07365
356.80 0.07387
356.90 0.07409
357.00 0.07431
357.10 0.07453
357.20 0.07475
357.30 0.07496
357.40 0.07518
357.50 0.0754
357.60 0.07562
357.70 0.07584
357.80 0.07605
357.90 0.07627
358.00 0.07649
358.10 0.07672
358.20 0.07695
358.30 0.07718
358.40 0.07741
358.50 0.07764
358.60 0.07787
358.70 0.0781
358.80 0.07833
358.90 0.07856
359.00 0.07879
359.10 0.07902
359.20 0.07925
359.30 0.07947
359.40 0.0797
359.50 0.07993
359.60 0.08016
359.70 0.08038
359.80 0.08061
359.90 0.08084
360.00 0.08106
360.10 0.08131
360.20 0.08155
360.30 0.08179
360.40 0.08203
360.50 0.08227
360.60 0.08251
360.70 0.08275
360.80 0.08298
360.90 0.08322
361.00 0.08346
361.10 0.0837
361.20 0.08394
361.30 0.08418
361.40 0.08441
361.50 0.08465
361.60 0.08489
361.70 0.08512
361.80 0.08536
361.90 0.0856
362.00 0.08583
362.10 0.08608
362.20 0.08633
362.30 0.08657
362.40 0.08682
362.50 0.08707
362.60 0.08731
362.70 0.08756
362.80 0.0878
362.90 0.08805
363.00 0.08829
363.10 0.08855
363.20 0.0888
363.30 0.08906
363.40 0.08931
363.50 0.08956
363.60 0.08982
363.70 0.09007
363.80 0.09032
363.90 0.09057
364.00 0.09082
364.10 0.09108
364.20 0.09133
364.30 0.09158
364.40 0.09183
364.50 0.09208
364.60 0.09234
364.70 0.0926
364.80 0.09286
364.90 0.09313
365.00 0.09339
365.10 0.09365
365.20 0.09391
365.30 0.09417
365.40 0.09443
365.50 0.09469
365.60 0.09495
365.70 0.09521
365.80 0.09546
365.90 0.09572
366.00 0.09598
366.10 0.09625
366.20 0.09652
366.30 0.0968
366.40 0.09707
366.50 0.09734
366.60 0.09761
366.70 0.09788
366.80 0.09815
366.90 0.09842
367.00 0.09869
367.10 0.09896
367.20 0.09923
367.30 0.0995
367.40 0.09976
367.50 0.1
367.60 0.1003
367.70 0.1006
367.80 0.1008
367.90 0.1011
368.00 0.1014
368.10 0.1017
368.20 0.1019
368.30 0.1022
368.40 0.1025
368.50 0.1028
368.60 0.1031
368.70 0.1033
368.80 0.1036
368.90 0.1039
369.00 0.1042
369.10 0.1045
369.20 0.1047
369.30 0.105
369.40 0.1053
369.50 0.1056
369.60 0.1059
369.70 0.1061
369.80 0.1064
369.90 0.1067
370.00 0.107
370.10 0.1073
370.20 0.1076
370.30 0.1078
370.40 0.1081
370.50 0.1084
370.60 0.1087
370.70 0.109
370.80 0.1093
370.90 0.1096
371.00 0.1099
371.10 0.1102
371.20 0.1105
371.30 0.1108
371.40 0.1111
371.50 0.1113
371.60 0.1116
371.70 0.1119
371.80 0.1122
371.90 0.1125
372.00 0.1128
372.10 0.1131
372.20 0.1134
372.30 0.1137
372.40 0.114
372.50 0.1143
372.60 0.1146
372.70 0.1149
372.80 0.1152
372.90 0.1155
373.00 0.1158
373.10 0.1161
373.20 0.1164
373.30 0.1167
373.40 0.117
373.50 0.1173
373.60 0.1176
373.70 0.1179
373.80 0.1182
373.90 0.1185
374.00 0.1188
374.10 0.1191
374.20 0.1194
374.30 0.1198
374.40 0.1201
374.50 0.1204
374.60 0.1207
374.70 0.121
374.80 0.1213
374.90 0.1217
375.00 0.122
375.10 0.1223
375.20 0.1226
375.30 0.1229
375.40 0.1232
375.50 0.1235
375.60 0.1238
375.70 0.1241
375.80 0.1245
375.90 0.1248
376.00 0.1251
376.10 0.1254
376.20 0.1257
376.30 0.126
376.40 0.1264
376.50 0.1267
376.60 0.127
376.70 0.1273
376.80 0.1277
376.90 0.128
377.00 0.1283
377.10 0.1286
377.20 0.129
377.30 0.1293
377.40 0.1296
377.50 0.1299
377.60 0.1303
377.70 0.1306
377.80 0.1309
377.90 0.1312
378.00 0.1316
378.10 0.1319
378.20 0.1322
378.30 0.1326
378.40 0.1329
378.50 0.1332
378.60 0.1336
378.70 0.1339
378.80 0.1342
378.90 0.1346
379.00 0.1349
379.10 0.1352
379.20 0.1356
379.30 0.1359
379.40 0.1363
379.50 0.1366
379.60 0.1369
379.70 0.1373
379.80 0.1376
379.90 0.1379
380.00 0.1383
380.10 0.1386
380.20 0.139
380.30 0.1393
380.40 0.1397
380.50 0.14
380.60 0.1404
380.70 0.1407
380.80 0.141
380.90 0.1414
381.00 0.1417
381.10 0.1421
381.20 0.1424
381.30 0.1428
381.40 0.1431
381.50 0.1435
381.60 0.1438
381.70 0.1442
381.80 0.1445
381.90 0.1449
382.00 0.1452
382.10 0.1456
382.20 0.1459
382.30 0.1463
382.40 0.1467
382.50 0.147
382.60 0.1474
382.70 0.1477
382.80 0.1481
382.90 0.1485
383.00 0.1488
383.10 0.1492
383.20 0.1495
383.30 0.1499
383.40 0.1502
383.50 0.1506
383.60 0.151
383.70 0.1513
383.80 0.1517
383.90 0.1521
384.00 0.1524
384.10 0.1528
384.20 0.1532
384.30 0.1535
384.40 0.1539
384.50 0.1543
384.60 0.1546
384.70 0.155
384.80 0.1554
384.90 0.1557
385.00 0.1561
385.10 0.1565
385.20 0.1569
385.30 0.1572
385.40 0.1576
385.50 0.158
385.60 0.1584
385.70 0.1587
385.80 0.1591
385.90 0.1595
386.00 0.1599
386.10 0.1602
386.20 0.1606
386.30 0.161
386.40 0.1614
386.50 0.1618
386.60 0.1621
386.70 0.1625
386.80 0.1629
386.90 0.1633
387.00 0.1637
387.10 0.164
387.20 0.1644
387.30 0.1648
387.40 0.1652
387.50 0.1656
387.60 0.166
387.70 0.1664
387.80 0.1668
387.90 0.1671
388.00 0.1675
388.10 0.1679
388.20 0.1683
388.30 0.1687
388.40 0.1691
388.50 0.1695
388.60 0.1699
388.70 0.1703
388.80 0.1707
388.90 0.1711
389.00 0.1715
389.10 0.1719
389.20 0.1723
389.30 0.1727
389.40 0.173
389.50 0.1734
389.60 0.1738
389.70 0.1742
389.80 0.1746
389.90 0.175
390.00 0.1755
390.10 0.1759
390.20 0.1763
390.30 0.1767
390.40 0.1771
390.50 0.1775
390.60 0.1779
390.70 0.1783
390.80 0.1787
390.90 0.1791
391.00 0.1795
391.10 0.1799
391.20 0.1803
391.30 0.1807
391.40 0.1811
391.50 0.1816
391.60 0.182
391.70 0.1824
391.80 0.1828
391.90 0.1832
392.00 0.1836
392.10 0.184
392.20 0.1844
392.30 0.1849
392.40 0.1853
392.50 0.1857
392.60 0.1861
392.70 0.1865
392.80 0.187
392.90 0.1874
393.00 0.1878
393.10 0.1882
393.20 0.1886
393.30 0.1891
393.40 0.1895
393.50 0.1899
393.60 0.1903
393.70 0.1908
393.80 0.1912
393.90 0.1916
394.00 0.192
394.10 0.1925
394.20 0.1929
394.30 0.1933
394.40 0.1937
394.50 0.1942
394.60 0.1946
394.70 0.195
394.80 0.1955
394.90 0.1959
395.00 0.1963
395.10 0.1968
395.20 0.1972
395.30 0.1976
395.40 0.1981
395.50 0.1985
395.60 0.199
395.70 0.1994
395.80 0.1998
395.90 0.2003
396.00 0.2007
396.10 0.2011
396.20 0.2016
396.30 0.202
396.40 0.2025
396.50 0.2029
396.60 0.2034
396.70 0.2038
396.80 0.2042
396.90 0.2047
397.00 0.2051
397.10 0.2056
397.20 0.206
397.30 0.2065
397.40 0.2069
397.50 0.2074
397.60 0.2078
397.70 0.2083
397.80 0.2087
397.90 0.2092
398.00 0.2096
398.10 0.2101
398.20 0.2105
398.30 0.211
398.40 0.2114
398.50 0.2119
398.60 0.2124
398.70 0.2128
398.80 0.2133
398.90 0.2137
399.00 0.2142
399.10 0.2146
399.20 0.2151
399.30 0.2156
399.40 0.216
399.50 0.2165
399.60 0.217
399.70 0.2174
399.80 0.2179
399.90 0.2183
400.00 0.2188
400.10 0.2193
400.20 0.2197
400.30 0.2202
400.40 0.2207
400.50 0.2212
400.60 0.2216
400.70 0.2221
400.80 0.2226
400.90 0.223
401.00 0.2235
401.10 0.224
401.20 0.2244
401.30 0.2249
401.40 0.2254
401.50 0.2259
401.60 0.2263
401.70 0.2268
401.80 0.2273
401.90 0.2278
402.00 0.2283
402.10 0.2287
402.20 0.2292
402.30 0.2297
402.40 0.2302
402.50 0.2307
402.60 0.2311
402.70 0.2316
402.80 0.2321
402.90 0.2326
403.00 0.2331
403.10 0.2336
403.20 0.234
403.30 0.2345
403.40 0.235
403.50 0.2355
403.60 0.236
403.70 0.2365
403.80 0.237
403.90 0.2375
404.00 0.238
404.10 0.2384
404.20 0.2389
404.30 0.2394
404.40 0.2399
404.50 0.2404
404.60 0.2409
404.70 0.2414
404.80 0.2419
404.90 0.2424
405.00 0.2429
405.10 0.2434
405.20 0.2439
405.30 0.2444
405.40 0.2449
405.50 0.2454
405.60 0.2459
405.70 0.2464
405.80 0.2469
405.90 0.2474
406.00 0.2479
406.10 0.2484
406.20 0.2489
406.30 0.2494
406.40 0.2499
406.50 0.2505
406.60 0.251
406.70 0.2515
406.80 0.252
406.90 0.2525
407.00 0.253
407.10 0.2535
407.20 0.254
407.30 0.2545
407.40 0.255
407.50 0.2556
407.60 0.2561
407.70 0.2566
407.80 0.2571
407.90 0.2576
408.00 0.2581
408.10 0.2587
408.20 0.2592
408.30 0.2597
408.40 0.2602
408.50 0.2607
408.60 0.2613
408.70 0.2618
408.80 0.2623
408.90 0.2628
409.00 0.2634
409.10 0.2639
409.20 0.2644
409.30 0.2649
409.40 0.2655
409.50 0.266
409.60 0.2665
409.70 0.267
409.80 0.2676
409.90 0.2681
410.00 0.2686
410.10 0.2692
410.20 0.2697
410.30 0.2702
410.40 0.2708
410.50 0.2713
410.60 0.2718
410.70 0.2724
410.80 0.2729
410.90 0.2734
411.00 0.274
411.10 0.2745
411.20 0.2751
411.30 0.2756
411.40 0.2761
411.50 0.2767
411.60 0.2772
411.70 0.2778
411.80 0.2783
411.90 0.2788
412.00 0.2794
412.10 0.2799
412.20 0.2805
412.30 0.281
412.40 0.2816
412.50 0.2821
412.60 0.2827
412.70 0.2832
412.80 0.2838
412.90 0.2843
413.00 0.2849
413.10 0.2854
413.20 0.286
413.30 0.2865
413.40 0.2871
413.50 0.2876
413.60 0.2882
413.70 0.2887
413.80 0.2893
413.90 0.2899
414.00 0.2904
414.10 0.291
414.20 0.2915
414.30 0.2921
414.40 0.2926
414.50 0.2932
414.60 0.2938
414.70 0.2943
414.80 0.2949
414.90 0.2955
415.00 0.296
415.10 0.2966
415.20 0.2971
415.30 0.2977
415.40 0.2983
415.50 0.2989
415.60 0.2994
415.70 0.3
415.80 0.3005
415.90 0.3011
416.00 0.3017
416.10 0.3023
416.20 0.3028
416.30 0.3034
416.40 0.304
416.50 0.3046
416.60 0.3051
416.70 0.3057
416.80 0.3063
416.90 0.3069
417.00 0.3074
417.10 0.308
417.20 0.3086
417.30 0.3092
417.40 0.3098
417.50 0.3103
417.60 0.3109
417.70 0.3115
417.80 0.3121
417.90 0.3127
418.00 0.3132
418.10 0.3138
418.20 0.3144
418.30 0.315
418.40 0.3156
418.50 0.3162
418.60 0.3168
418.70 0.3173
418.80 0.3179
418.90 0.3185
419.00 0.3191
419.10 0.3197
419.20 0.3203
419.30 0.3209
419.40 0.3215
419.50 0.3221
419.60 0.3227
419.70 0.3233
419.80 0.3239
419.90 0.3245
420.00 0.3251
420.10 0.3257
420.20 0.3263
420.30 0.3269
420.40 0.3275
420.50 0.3281
420.60 0.3287
420.70 0.3293
420.80 0.3299
420.90 0.3305
421.00 0.3311
421.10 0.3317
421.20 0.3323
421.30 0.3329
421.40 0.3335
421.50 0.3341
421.60 0.3347
421.70 0.3353
421.80 0.3359
421.90 0.3365
422.00 0.3372
422.10 0.3378
422.20 0.3384
422.30 0.339
422.40 0.3396
422.50 0.3402
422.60 0.3408
422.70 0.3414
422.80 0.3421
422.90 0.3427
423.00 0.3433
423.10 0.3439
423.20 0.3445
423.30 0.3451
423.40 0.3458
423.50 0.3464
423.60 0.347
423.70 0.3476
423.80 0.3483
423.90 0.3489
424.00 0.3495
424.10 0.3501
424.20 0.3508
424.30 0.3514
424.40 0.352
424.50 0.3526
424.60 0.3533
424.70 0.3539
424.80 0.3545
424.90 0.3552
425.00 0.3558
425.10 0.3564
425.20 0.357
425.30 0.3577
425.40 0.3583
425.50 0.359
425.60 0.3596
425.70 0.3602
425.80 0.3609
425.90 0.3615
426.00 0.3621
426.10 0.3628
426.20 0.3634
426.30 0.364
426.40 0.3647
426.50 0.3653
426.60 0.366
426.70 0.3666
426.80 0.3673
426.90 0.3679
427.00 0.3685
427.10 0.3692
427.20 0.3698
427.30 0.3705
427.40 0.3711
427.50 0.3718
427.60 0.3724
427.70 0.3731
427.80 0.3737
427.90 0.3744
428.00 0.375
428.10 0.3757
428.20 0.3763
428.30 0.377
428.40 0.3776
428.50 0.3783
428.60 0.3789
428.70 0.3796
428.80 0.3803
428.90 0.3809
429.00 0.3816
429.10 0.3822
429.20 0.3829
429.30 0.3835
429.40 0.3842
429.50 0.3849
429.60 0.3855
429.70 0.3862
429.80 0.3869
429.90 0.3875
430.00 0.3882
430.10 0.3888
430.20 0.3895
430.30 0.3902
430.40 0.3908
430.50 0.3915
430.60 0.3922
430.70 0.3928
430.80 0.3935
430.90 0.3942
431.00 0.3948
431.10 0.3955
431.20 0.3962
431.30 0.3969
431.40 0.3975
431.50 0.3982
431.60 0.3989
431.70 0.3996
431.80 0.4002
431.90 0.4009
432.00 0.4016
432.10 0.4023
432.20 0.403
432.30 0.4036
432.40 0.4043
432.50 0.405
432.60 0.4057
432.70 0.4064
432.80 0.407
432.90 0.4077
433.00 0.4084
433.10 0.4091
433.20 0.4098
433.30 0.4104
433.40 0.4111
433.50 0.4118
433.60 0.4125
433.70 0.4132
433.80 0.4139
433.90 0.4146
434.00 0.4153
434.10 0.416
434.20 0.4167
434.30 0.4174
434.40 0.418
434.50 0.4187
434.60 0.4194
434.70 0.4201
434.80 0.4208
434.90 0.4215
435.00 0.4222
435.10 0.4229
435.20 0.4236
435.30 0.4243
435.40 0.425
435.50 0.4257
435.60 0.4264
435.70 0.4271
435.80 0.4278
435.90 0.4285
436.00 0.4292
436.10 0.4299
436.20 0.4306
436.30 0.4313
436.40 0.4321
436.50 0.4328
436.60 0.4335
436.70 0.4342
436.80 0.4349
436.90 0.4356
437.00 0.4363
437.10 0.437
437.20 0.4377
437.30 0.4384
437.40 0.4391
437.50 0.4399
437.60 0.4406
437.70 0.4413
437.80 0.442
437.90 0.4427
