# Version 2.1 - nm, norm@500 to 1, cut digits, bergeron_5500_70.dat_5500
# Wavelength(nm)  Flambda(ergs/cm^s/s/nm)
300.00 0.5122
300.10 0.5127
300.20 0.5132
300.30 0.5137
300.40 0.5141
300.50 0.5146
300.60 0.5151
300.70 0.5156
300.80 0.5161
300.90 0.5166
301.00 0.5171
301.10 0.5176
301.20 0.5181
301.30 0.5186
301.40 0.5191
301.50 0.5195
301.60 0.52
301.70 0.5205
301.80 0.521
301.90 0.5215
302.00 0.522
302.10 0.5225
302.20 0.523
302.30 0.5235
302.40 0.5239
302.50 0.5244
302.60 0.5249
302.70 0.5254
302.80 0.5259
302.90 0.5264
303.00 0.5269
303.10 0.5274
303.20 0.5279
303.30 0.5283
303.40 0.5288
303.50 0.5293
303.60 0.5298
303.70 0.5303
303.80 0.5308
303.90 0.5312
304.00 0.5317
304.10 0.5322
304.20 0.5327
304.30 0.5332
304.40 0.5337
304.50 0.5342
304.60 0.5347
304.70 0.5352
304.80 0.5356
304.90 0.5361
305.00 0.5366
305.10 0.5371
305.20 0.5376
305.30 0.5381
305.40 0.5386
305.50 0.539
305.60 0.5395
305.70 0.54
305.80 0.5405
305.90 0.541
306.00 0.5414
306.10 0.5419
306.20 0.5424
306.30 0.5429
306.40 0.5434
306.50 0.5439
306.60 0.5444
306.70 0.5448
306.80 0.5453
306.90 0.5458
307.00 0.5463
307.10 0.5468
307.20 0.5473
307.30 0.5477
307.40 0.5482
307.50 0.5487
307.60 0.5492
307.70 0.5497
307.80 0.5501
307.90 0.5506
308.00 0.5511
308.10 0.5516
308.20 0.5521
308.30 0.5525
308.40 0.553
308.50 0.5535
308.60 0.554
308.70 0.5545
308.80 0.555
308.90 0.5554
309.00 0.5559
309.10 0.5564
309.20 0.5569
309.30 0.5573
309.40 0.5578
309.50 0.5583
309.60 0.5588
309.70 0.5593
309.80 0.5597
309.90 0.5602
310.00 0.5607
310.10 0.5612
310.20 0.5616
310.30 0.5621
310.40 0.5626
310.50 0.5631
310.60 0.5636
310.70 0.564
310.80 0.5645
310.90 0.565
311.00 0.5655
311.10 0.566
311.20 0.5664
311.30 0.5669
311.40 0.5674
311.50 0.5678
311.60 0.5683
311.70 0.5688
311.80 0.5693
311.90 0.5697
312.00 0.5702
312.10 0.5707
312.20 0.5711
312.30 0.5716
312.40 0.5721
312.50 0.5726
312.60 0.5731
312.70 0.5735
312.80 0.574
312.90 0.5745
313.00 0.575
313.10 0.5754
313.20 0.5759
313.30 0.5764
313.40 0.5768
313.50 0.5773
313.60 0.5778
313.70 0.5782
313.80 0.5787
313.90 0.5792
314.00 0.5797
314.10 0.5801
314.20 0.5806
314.30 0.5811
314.40 0.5816
314.50 0.582
314.60 0.5825
314.70 0.583
314.80 0.5834
314.90 0.5839
315.00 0.5844
315.10 0.5848
315.20 0.5853
315.30 0.5858
315.40 0.5862
315.50 0.5867
315.60 0.5872
315.70 0.5876
315.80 0.5881
315.90 0.5886
316.00 0.589
316.10 0.5895
316.20 0.59
316.30 0.5904
316.40 0.5909
316.50 0.5914
316.60 0.5919
316.70 0.5923
316.80 0.5928
316.90 0.5932
317.00 0.5937
317.10 0.5942
317.20 0.5946
317.30 0.5951
317.40 0.5956
317.50 0.596
317.60 0.5965
317.70 0.597
317.80 0.5974
317.90 0.5979
318.00 0.5983
318.10 0.5988
318.20 0.5993
318.30 0.5997
318.40 0.6002
318.50 0.6007
318.60 0.6011
318.70 0.6016
318.80 0.6021
318.90 0.6025
319.00 0.603
319.10 0.6034
319.20 0.6039
319.30 0.6044
319.40 0.6048
319.50 0.6053
319.60 0.6057
319.70 0.6062
319.80 0.6066
319.90 0.6071
320.00 0.6076
320.10 0.608
320.20 0.6085
320.30 0.6089
320.40 0.6094
320.50 0.6099
320.60 0.6103
320.70 0.6108
320.80 0.6113
320.90 0.6117
321.00 0.6122
321.10 0.6126
321.20 0.6131
321.30 0.6135
321.40 0.614
321.50 0.6145
321.60 0.6149
321.70 0.6154
321.80 0.6158
321.90 0.6163
322.00 0.6167
322.10 0.6172
322.20 0.6176
322.30 0.6181
322.40 0.6186
322.50 0.619
322.60 0.6195
322.70 0.6199
322.80 0.6204
322.90 0.6208
323.00 0.6213
323.10 0.6217
323.20 0.6222
323.30 0.6227
323.40 0.6231
323.50 0.6236
323.60 0.624
323.70 0.6245
323.80 0.6249
323.90 0.6254
324.00 0.6258
324.10 0.6263
324.20 0.6267
324.30 0.6272
324.40 0.6276
324.50 0.6281
324.60 0.6285
324.70 0.629
324.80 0.6294
324.90 0.6299
325.00 0.6303
325.10 0.6308
325.20 0.6312
325.30 0.6317
325.40 0.6321
325.50 0.6326
325.60 0.633
325.70 0.6334
325.80 0.6339
325.90 0.6343
326.00 0.6348
326.10 0.6352
326.20 0.6357
326.30 0.6361
326.40 0.6366
326.50 0.637
326.60 0.6375
326.70 0.6379
326.80 0.6384
326.90 0.6388
327.00 0.6392
327.10 0.6397
327.20 0.6401
327.30 0.6406
327.40 0.641
327.50 0.6415
327.60 0.6419
327.70 0.6423
327.80 0.6428
327.90 0.6432
328.00 0.6437
328.10 0.6441
328.20 0.6445
328.30 0.645
328.40 0.6454
328.50 0.6459
328.60 0.6463
328.70 0.6468
328.80 0.6472
328.90 0.6477
329.00 0.6481
329.10 0.6485
329.20 0.649
329.30 0.6494
329.40 0.6499
329.50 0.6503
329.60 0.6507
329.70 0.6512
329.80 0.6516
329.90 0.652
330.00 0.6525
330.10 0.6529
330.20 0.6534
330.30 0.6538
330.40 0.6542
330.50 0.6547
330.60 0.6551
330.70 0.6555
330.80 0.656
330.90 0.6564
331.00 0.6568
331.10 0.6573
331.20 0.6577
331.30 0.6581
331.40 0.6586
331.50 0.659
331.60 0.6594
331.70 0.6599
331.80 0.6603
331.90 0.6607
332.00 0.6612
332.10 0.6616
332.20 0.662
332.30 0.6625
332.40 0.6629
332.50 0.6633
332.60 0.6638
332.70 0.6642
332.80 0.6646
332.90 0.6651
333.00 0.6655
333.10 0.6659
333.20 0.6663
333.30 0.6668
333.40 0.6672
333.50 0.6676
333.60 0.668
333.70 0.6685
333.80 0.6689
333.90 0.6693
334.00 0.6697
334.10 0.6702
334.20 0.6706
334.30 0.671
334.40 0.6715
334.50 0.6719
334.60 0.6723
334.70 0.6727
334.80 0.6732
334.90 0.6736
335.00 0.674
335.10 0.6744
335.20 0.6749
335.30 0.6753
335.40 0.6757
335.50 0.6761
335.60 0.6766
335.70 0.677
335.80 0.6774
335.90 0.6778
336.00 0.6782
336.10 0.6787
336.20 0.6791
336.30 0.6795
336.40 0.6799
336.50 0.6804
336.60 0.6808
336.70 0.6812
336.80 0.6816
336.90 0.6821
337.00 0.6825
337.10 0.6829
337.20 0.6833
337.30 0.6838
337.40 0.6842
337.50 0.6846
337.60 0.685
337.70 0.6854
337.80 0.6859
337.90 0.6863
338.00 0.6867
338.10 0.6871
338.20 0.6875
338.30 0.6879
338.40 0.6884
338.50 0.6888
338.60 0.6892
338.70 0.6896
338.80 0.69
338.90 0.6904
339.00 0.6909
339.10 0.6913
339.20 0.6917
339.30 0.6921
339.40 0.6925
339.50 0.6929
339.60 0.6933
339.70 0.6937
339.80 0.6941
339.90 0.6945
340.00 0.695
340.10 0.6954
340.20 0.6958
340.30 0.6962
340.40 0.6966
340.50 0.697
340.60 0.6974
340.70 0.6979
340.80 0.6983
340.90 0.6987
341.00 0.6991
341.10 0.6995
341.20 0.6999
341.30 0.7003
341.40 0.7007
341.50 0.7011
341.60 0.7016
341.70 0.702
341.80 0.7024
341.90 0.7028
342.00 0.7032
342.10 0.7036
342.20 0.704
342.30 0.7044
342.40 0.7048
342.50 0.7052
342.60 0.7056
342.70 0.706
342.80 0.7064
342.90 0.7068
343.00 0.7073
343.10 0.7077
343.20 0.7081
343.30 0.7085
343.40 0.7089
343.50 0.7093
343.60 0.7097
343.70 0.7101
343.80 0.7105
343.90 0.7109
344.00 0.7113
344.10 0.7117
344.20 0.7121
344.30 0.7125
344.40 0.7129
344.50 0.7133
344.60 0.7137
344.70 0.7141
344.80 0.7145
344.90 0.7149
345.00 0.7153
345.10 0.7157
345.20 0.7161
345.30 0.7165
345.40 0.7169
345.50 0.7173
345.60 0.7176
345.70 0.718
345.80 0.7184
345.90 0.7188
346.00 0.7192
346.10 0.7196
346.20 0.72
346.30 0.7204
346.40 0.7208
346.50 0.7212
346.60 0.7216
346.70 0.722
346.80 0.7224
346.90 0.7228
347.00 0.7232
347.10 0.7236
347.20 0.724
347.30 0.7244
347.40 0.7248
347.50 0.7251
347.60 0.7255
347.70 0.7259
347.80 0.7263
347.90 0.7267
348.00 0.7271
348.10 0.7275
348.20 0.7279
348.30 0.7283
348.40 0.7287
348.50 0.7291
348.60 0.7295
348.70 0.7298
348.80 0.7302
348.90 0.7306
349.00 0.731
349.10 0.7314
349.20 0.7318
349.30 0.7322
349.40 0.7326
349.50 0.733
349.60 0.7333
349.70 0.7337
349.80 0.7341
349.90 0.7345
350.00 0.7349
350.10 0.7353
350.20 0.7357
350.30 0.736
350.40 0.7364
350.50 0.7368
350.60 0.7372
350.70 0.7376
350.80 0.738
350.90 0.7383
351.00 0.7387
351.10 0.7391
351.20 0.7395
351.30 0.7399
351.40 0.7402
351.50 0.7406
351.60 0.741
351.70 0.7414
351.80 0.7417
351.90 0.7421
352.00 0.7425
352.10 0.7429
352.20 0.7433
352.30 0.7436
352.40 0.744
352.50 0.7444
352.60 0.7448
352.70 0.7452
352.80 0.7455
352.90 0.7459
353.00 0.7463
353.10 0.7467
353.20 0.747
353.30 0.7474
353.40 0.7478
353.50 0.7482
353.60 0.7485
353.70 0.7489
353.80 0.7493
353.90 0.7497
354.00 0.75
354.10 0.7504
354.20 0.7508
354.30 0.7512
354.40 0.7515
354.50 0.7519
354.60 0.7523
354.70 0.7527
354.80 0.753
354.90 0.7534
355.00 0.7538
355.10 0.7541
355.20 0.7545
355.30 0.7549
355.40 0.7553
355.50 0.7556
355.60 0.756
355.70 0.7564
355.80 0.7567
355.90 0.7571
356.00 0.7575
356.10 0.7578
356.20 0.7582
356.30 0.7586
356.40 0.7589
356.50 0.7593
356.60 0.7597
356.70 0.76
356.80 0.7604
356.90 0.7608
357.00 0.7611
357.10 0.7615
357.20 0.7619
357.30 0.7622
357.40 0.7626
357.50 0.7629
357.60 0.7633
357.70 0.7637
357.80 0.764
357.90 0.7644
358.00 0.7648
358.10 0.7651
358.20 0.7655
358.30 0.7658
358.40 0.7662
358.50 0.7666
358.60 0.7669
358.70 0.7673
358.80 0.7677
358.90 0.768
359.00 0.7684
359.10 0.7687
359.20 0.7691
359.30 0.7694
359.40 0.7698
359.50 0.7702
359.60 0.7705
359.70 0.7709
359.80 0.7712
359.90 0.7716
360.00 0.7719
360.10 0.7723
360.20 0.7727
360.30 0.773
360.40 0.7734
360.50 0.7737
360.60 0.7741
360.70 0.7744
360.80 0.7748
360.90 0.7751
361.00 0.7755
361.10 0.7758
361.20 0.7762
361.30 0.7766
361.40 0.7769
361.50 0.7773
361.60 0.7776
361.70 0.778
361.80 0.7783
361.90 0.7787
362.00 0.779
362.10 0.7794
362.20 0.7797
362.30 0.7801
362.40 0.7804
362.50 0.7808
362.60 0.7811
362.70 0.7815
362.80 0.7818
362.90 0.7822
363.00 0.7825
363.10 0.7829
363.20 0.7832
363.30 0.7836
363.40 0.7839
363.50 0.7843
363.60 0.7846
363.70 0.7849
363.80 0.7853
363.90 0.7856
364.00 0.786
364.10 0.7863
364.20 0.7867
364.30 0.787
364.40 0.7873
364.50 0.7877
364.60 0.7881
364.70 0.7884
364.80 0.7887
364.90 0.7891
365.00 0.7894
365.10 0.7898
365.20 0.7901
365.30 0.7904
365.40 0.7908
365.50 0.7911
365.60 0.7915
365.70 0.7918
365.80 0.7921
365.90 0.7925
366.00 0.7928
366.10 0.7931
366.20 0.7935
366.30 0.7938
366.40 0.7942
366.50 0.7945
366.60 0.7948
366.70 0.7952
366.80 0.7955
366.90 0.7958
367.00 0.7962
367.10 0.7965
367.20 0.7968
367.30 0.7972
367.40 0.7975
367.50 0.7978
367.60 0.7982
367.70 0.7985
367.80 0.7988
367.90 0.7992
368.00 0.7995
368.10 0.7998
368.20 0.8002
368.30 0.8005
368.40 0.8008
368.50 0.8012
368.60 0.8015
368.70 0.8018
368.80 0.8022
368.90 0.8025
369.00 0.8028
369.10 0.8032
369.20 0.8035
369.30 0.8038
369.40 0.8041
369.50 0.8045
369.60 0.8048
369.70 0.8051
369.80 0.8054
369.90 0.8058
370.00 0.8061
370.10 0.8064
370.20 0.8068
370.30 0.8071
370.40 0.8074
370.50 0.8077
370.60 0.8081
370.70 0.8084
370.80 0.8087
370.90 0.809
371.00 0.8094
371.10 0.8097
371.20 0.81
371.30 0.8103
371.40 0.8107
371.50 0.811
371.60 0.8113
371.70 0.8116
371.80 0.8119
371.90 0.8123
372.00 0.8126
372.10 0.8129
372.20 0.8132
372.30 0.8136
372.40 0.8139
372.50 0.8142
372.60 0.8145
372.70 0.8149
372.80 0.8152
372.90 0.8155
373.00 0.8158
373.10 0.8161
373.20 0.8165
373.30 0.8168
373.40 0.8171
373.50 0.8174
373.60 0.8177
373.70 0.8181
373.80 0.8184
373.90 0.8187
374.00 0.819
374.10 0.8193
374.20 0.8197
374.30 0.82
374.40 0.8203
374.50 0.8206
374.60 0.821
374.70 0.8213
374.80 0.8216
374.90 0.8219
375.00 0.8223
375.10 0.8226
375.20 0.8229
375.30 0.8232
375.40 0.8235
375.50 0.8238
375.60 0.8242
375.70 0.8245
375.80 0.8248
375.90 0.8251
376.00 0.8254
376.10 0.8258
376.20 0.8261
376.30 0.8264
376.40 0.8267
376.50 0.8271
376.60 0.8274
376.70 0.8277
376.80 0.828
376.90 0.8284
377.00 0.8287
377.10 0.829
377.20 0.8293
377.30 0.8297
377.40 0.83
377.50 0.8303
377.60 0.8306
377.70 0.831
377.80 0.8313
377.90 0.8316
378.00 0.8319
378.10 0.8322
378.20 0.8325
378.30 0.8328
378.40 0.8331
378.50 0.8334
378.60 0.8337
378.70 0.834
378.80 0.8343
378.90 0.8346
379.00 0.8349
379.10 0.835
379.20 0.8351
379.30 0.8352
379.40 0.8353
379.50 0.8354
379.60 0.8355
379.70 0.8356
379.80 0.8357
379.90 0.8358
380.00 0.8359
380.10 0.8364
380.20 0.837
380.30 0.8376
380.40 0.8381
380.50 0.8387
380.60 0.8392
380.70 0.8398
380.80 0.8403
380.90 0.8409
381.00 0.8415
381.10 0.8418
381.20 0.8421
381.30 0.8424
381.40 0.8427
381.50 0.8431
381.60 0.8434
381.70 0.8437
381.80 0.844
381.90 0.8443
382.00 0.8446
382.10 0.8449
382.20 0.8451
382.30 0.8452
382.40 0.8452
382.50 0.8452
382.60 0.8452
382.70 0.8452
382.80 0.8452
382.90 0.8452
383.00 0.8452
383.10 0.8452
383.20 0.8452
383.30 0.8435
383.40 0.8399
383.50 0.8331
383.60 0.8353
383.70 0.8419
383.80 0.8455
383.90 0.8476
384.00 0.8489
384.10 0.8498
384.20 0.8505
384.30 0.851
384.40 0.8515
384.50 0.8519
384.60 0.8523
384.70 0.8527
384.80 0.8531
384.90 0.8534
385.00 0.8537
385.10 0.854
385.20 0.8543
385.30 0.8546
385.40 0.8549
385.50 0.8553
385.60 0.8556
385.70 0.8559
385.80 0.8562
385.90 0.8565
386.00 0.8567
386.10 0.857
386.20 0.8573
386.30 0.8576
386.40 0.8579
386.50 0.8582
386.60 0.8585
386.70 0.8587
386.80 0.859
386.90 0.8593
387.00 0.8596
387.10 0.8598
387.20 0.8601
387.30 0.8603
387.40 0.8606
387.50 0.8608
387.60 0.8611
387.70 0.8613
387.80 0.8614
387.90 0.8616
388.00 0.8617
388.10 0.8617
388.20 0.8616
388.30 0.8613
388.40 0.8606
388.50 0.8592
388.60 0.8571
388.70 0.8509
388.80 0.8391
388.90 0.8216
389.00 0.8389
389.10 0.8512
389.20 0.8584
389.30 0.8612
389.40 0.8633
389.50 0.8647
389.60 0.8655
389.70 0.8662
389.80 0.8667
389.90 0.8672
390.00 0.8676
390.10 0.868
390.20 0.8684
390.30 0.8687
390.40 0.869
390.50 0.8693
390.60 0.8696
390.70 0.8699
390.80 0.8702
390.90 0.8705
391.00 0.8708
391.10 0.8711
391.20 0.8714
391.30 0.8717
391.40 0.8719
391.50 0.8722
391.60 0.8725
391.70 0.8728
391.80 0.873
391.90 0.8733
392.00 0.8736
392.10 0.8739
392.20 0.8741
392.30 0.8744
392.40 0.8747
392.50 0.8749
392.60 0.8752
392.70 0.8755
392.80 0.8757
392.90 0.876
393.00 0.8763
393.10 0.8765
393.20 0.8768
393.30 0.877
393.40 0.8773
393.50 0.8776
393.60 0.8778
393.70 0.8781
393.80 0.8783
393.90 0.8786
394.00 0.8788
394.10 0.8791
394.20 0.8794
394.30 0.8796
394.40 0.8798
394.50 0.8801
394.60 0.8803
394.70 0.8806
394.80 0.8808
394.90 0.8811
395.00 0.8813
395.10 0.8815
395.20 0.8817
395.30 0.8819
395.40 0.8821
395.50 0.8823
395.60 0.8825
395.70 0.8826
395.80 0.8827
395.90 0.8828
396.00 0.8829
396.10 0.8829
396.20 0.8826
396.30 0.8823
396.40 0.8817
396.50 0.8803
396.60 0.8777
396.70 0.8739
396.80 0.8624
396.90 0.838
397.00 0.8008
397.10 0.8365
397.20 0.8611
397.30 0.8746
397.40 0.8792
397.50 0.8825
397.60 0.8846
397.70 0.8857
397.80 0.8866
397.90 0.8873
398.00 0.8879
398.10 0.8883
398.20 0.8888
398.30 0.8891
398.40 0.8895
398.50 0.8898
398.60 0.8901
398.70 0.8904
398.80 0.8907
398.90 0.891
399.00 0.8913
399.10 0.8916
399.20 0.8918
399.30 0.8921
399.40 0.8923
399.50 0.8926
399.60 0.8929
399.70 0.8931
399.80 0.8934
399.90 0.8936
400.00 0.8939
400.10 0.8941
400.20 0.8944
400.30 0.8946
400.40 0.8949
400.50 0.8951
400.60 0.8953
400.70 0.8956
400.80 0.8958
400.90 0.896
401.00 0.8963
401.10 0.8965
401.20 0.8968
401.30 0.897
401.40 0.8973
401.50 0.8975
401.60 0.8977
401.70 0.898
401.80 0.8982
401.90 0.8984
402.00 0.8987
402.10 0.8989
402.20 0.8992
402.30 0.8994
402.40 0.8996
402.50 0.8998
402.60 0.9001
402.70 0.9003
402.80 0.9005
402.90 0.9008
403.00 0.901
403.10 0.9012
403.20 0.9015
403.30 0.9017
403.40 0.9019
403.50 0.9022
403.60 0.9024
403.70 0.9026
403.80 0.9028
403.90 0.9031
404.00 0.9033
404.10 0.9035
404.20 0.9037
404.30 0.904
404.40 0.9042
404.50 0.9044
404.60 0.9046
404.70 0.9048
404.80 0.9051
404.90 0.9053
405.00 0.9055
405.10 0.9057
405.20 0.906
405.30 0.9062
405.40 0.9064
405.50 0.9066
405.60 0.9068
405.70 0.9071
405.80 0.9073
405.90 0.9075
406.00 0.9077
406.10 0.9079
406.20 0.9082
406.30 0.9084
406.40 0.9086
406.50 0.9088
406.60 0.909
406.70 0.9092
406.80 0.9094
406.90 0.9096
407.00 0.9098
407.10 0.91
407.20 0.9102
407.30 0.9105
407.40 0.9107
407.50 0.9109
407.60 0.911
407.70 0.9112
407.80 0.9114
407.90 0.9116
408.00 0.9118
408.10 0.912
408.20 0.9121
408.30 0.9123
408.40 0.9125
408.50 0.9126
408.60 0.9127
408.70 0.9128
408.80 0.9129
408.90 0.9129
409.00 0.9129
409.10 0.9129
409.20 0.9127
409.30 0.9124
409.40 0.9118
409.50 0.9109
409.60 0.9097
409.70 0.9069
409.80 0.9016
409.90 0.894
410.00 0.8671
410.10 0.8275
410.20 0.7751
410.30 0.8422
410.40 0.8841
410.50 0.901
410.60 0.9066
410.70 0.9107
410.80 0.9132
410.90 0.9145
411.00 0.9156
411.10 0.9165
411.20 0.9171
411.30 0.9176
411.40 0.9181
411.50 0.9184
411.60 0.9188
411.70 0.9191
411.80 0.9194
411.90 0.9197
412.00 0.92
412.10 0.9202
412.20 0.9205
412.30 0.9208
412.40 0.921
412.50 0.9212
412.60 0.9214
412.70 0.9217
412.80 0.9219
412.90 0.9221
413.00 0.9223
413.10 0.9225
413.20 0.9227
413.30 0.923
413.40 0.9232
413.50 0.9234
413.60 0.9236
413.70 0.9238
413.80 0.924
413.90 0.9242
414.00 0.9244
414.10 0.9246
414.20 0.9248
414.30 0.925
414.40 0.9252
414.50 0.9254
414.60 0.9256
414.70 0.9258
414.80 0.926
414.90 0.9262
415.00 0.9264
415.10 0.9266
415.20 0.9268
415.30 0.927
415.40 0.9272
415.50 0.9274
415.60 0.9276
415.70 0.9278
415.80 0.928
415.90 0.9282
416.00 0.9284
416.10 0.9286
416.20 0.9288
416.30 0.929
416.40 0.9291
416.50 0.9293
416.60 0.9295
416.70 0.9297
416.80 0.9299
416.90 0.9301
417.00 0.9303
417.10 0.9305
417.20 0.9307
417.30 0.9308
417.40 0.931
417.50 0.9312
417.60 0.9314
417.70 0.9316
417.80 0.9318
417.90 0.932
418.00 0.9321
418.10 0.9323
418.20 0.9325
418.30 0.9327
418.40 0.9329
418.50 0.9331
418.60 0.9332
418.70 0.9334
418.80 0.9336
418.90 0.9338
419.00 0.934
419.10 0.9342
419.20 0.9343
419.30 0.9345
419.40 0.9347
419.50 0.9349
419.60 0.9351
419.70 0.9353
419.80 0.9354
419.90 0.9356
420.00 0.9358
420.10 0.936
420.20 0.9362
420.30 0.9363
420.40 0.9365
420.50 0.9367
420.60 0.9369
420.70 0.937
420.80 0.9372
420.90 0.9374
421.00 0.9376
421.10 0.9378
421.20 0.9379
421.30 0.9381
421.40 0.9383
421.50 0.9384
421.60 0.9386
421.70 0.9388
421.80 0.939
421.90 0.9392
422.00 0.9393
422.10 0.9395
422.20 0.9397
422.30 0.9398
422.40 0.94
422.50 0.9402
422.60 0.9404
422.70 0.9405
422.80 0.9407
422.90 0.9409
423.00 0.941
423.10 0.9412
423.20 0.9414
423.30 0.9416
423.40 0.9417
423.50 0.9419
423.60 0.9421
423.70 0.9422
423.80 0.9424
423.90 0.9426
424.00 0.9427
424.10 0.9429
424.20 0.9431
424.30 0.9432
424.40 0.9434
424.50 0.9436
424.60 0.9437
424.70 0.9439
424.80 0.9441
424.90 0.9442
425.00 0.9444
425.10 0.9445
425.20 0.9447
425.30 0.9449
425.40 0.9451
425.50 0.9452
425.60 0.9454
425.70 0.9455
425.80 0.9457
425.90 0.9459
426.00 0.946
426.10 0.9462
426.20 0.9463
426.30 0.9465
426.40 0.9467
426.50 0.9468
426.60 0.947
426.70 0.9471
426.80 0.9473
426.90 0.9475
427.00 0.9476
427.10 0.9478
427.20 0.9479
427.30 0.9481
427.40 0.9482
427.50 0.9484
427.60 0.9486
427.70 0.9487
427.80 0.9489
427.90 0.949
428.00 0.9492
428.10 0.9493
428.20 0.9495
428.30 0.9496
428.40 0.9498
428.50 0.95
428.60 0.9501
428.70 0.9502
428.80 0.9504
428.90 0.9505
429.00 0.9507
429.10 0.9509
429.20 0.951
429.30 0.9511
429.40 0.9513
429.50 0.9514
429.60 0.9516
429.70 0.9517
429.80 0.9519
429.90 0.952
430.00 0.9522
430.10 0.9523
430.20 0.9524
430.30 0.9526
430.40 0.9527
430.50 0.9528
430.60 0.953
430.70 0.9531
430.80 0.9532
430.90 0.9534
431.00 0.9535
431.10 0.9536
431.20 0.9537
431.30 0.9539
431.40 0.954
431.50 0.9541
431.60 0.9542
431.70 0.9543
431.80 0.9544
431.90 0.9545
432.00 0.9546
432.10 0.9546
432.20 0.9546
432.30 0.9547
432.40 0.9547
432.50 0.9547
432.60 0.9546
432.70 0.9545
432.80 0.9544
432.90 0.9541
433.00 0.9538
433.10 0.9532
433.20 0.9524
433.30 0.9513
433.40 0.9493
433.50 0.9462
433.60 0.9421
433.70 0.9316
433.80 0.9091
433.90 0.8745
434.00 0.7408
434.10 0.7427
434.20 0.88
434.30 0.9124
434.40 0.9337
434.50 0.9439
434.60 0.9482
434.70 0.9514
434.80 0.9536
434.90 0.9549
435.00 0.9559
435.10 0.9568
435.20 0.9574
435.30 0.9579
435.40 0.9584
435.50 0.9587
435.60 0.9591
435.70 0.9594
435.80 0.9596
435.90 0.9599
436.00 0.9601
436.10 0.9603
436.20 0.9605
436.30 0.9607
436.40 0.9609
436.50 0.9611
436.60 0.9613
436.70 0.9615
436.80 0.9616
436.90 0.9618
437.00 0.9619
437.10 0.9621
437.20 0.9622
437.30 0.9624
437.40 0.9625
437.50 0.9627
437.60 0.9629
437.70 0.963
437.80 0.9631
437.90 0.9633
438.00 0.9634
438.10 0.9636
438.20 0.9637
438.30 0.9638
438.40 0.964
438.50 0.9641
438.60 0.9642
438.70 0.9644
438.80 0.9645
438.90 0.9647
439.00 0.9648
439.10 0.9649
439.20 0.965
439.30 0.9652
439.40 0.9653
439.50 0.9654
439.60 0.9656
439.70 0.9657
439.80 0.9658
439.90 0.966
440.00 0.9661
440.10 0.9662
440.20 0.9663
440.30 0.9665
440.40 0.9666
440.50 0.9667
440.60 0.9668
440.70 0.967
440.80 0.9671
440.90 0.9672
441.00 0.9674
441.10 0.9675
441.20 0.9676
441.30 0.9677
441.40 0.9678
441.50 0.968
441.60 0.9681
441.70 0.9682
441.80 0.9683
441.90 0.9685
442.00 0.9686
442.10 0.9687
442.20 0.9688
442.30 0.9689
442.40 0.9691
442.50 0.9692
442.60 0.9693
442.70 0.9694
442.80 0.9695
442.90 0.9697
443.00 0.9698
